Time (ps), RMSD (nm)
0.000, 0.001
0.100, 0.192
0.200, 0.198
0.300, 0.207
0.400, 0.176
0.500, 0.186
0.600, 0.200
0.700, 0.200
0.800, 0.214
0.900, 0.184
1.000, 0.214
1.100, 0.193
1.200, 0.205
1.300, 0.177
1.400, 0.175
1.500, 0.194
1.600, 0.163
1.700, 0.170
1.800, 0.186
1.900, 0.212
2.000, 0.194
2.100, 0.193
2.200, 0.197
2.300, 0.214
2.400, 0.218
2.500, 0.202
2.600, 0.195
2.700, 0.207
2.800, 0.193
2.900, 0.215
3.000, 0.203
3.100, 0.189
3.200, 0.189
3.300, 0.173
3.400, 0.190
3.500, 0.208
3.600, 0.209
3.700, 0.221
3.800, 0.205
3.900, 0.231
4.000, 0.223
4.100, 0.204
4.200, 0.211
4.300, 0.209
4.400, 0.182
4.500, 0.195
4.600, 0.194
4.700, 0.180
4.800, 0.195
4.900, 0.208
5.000, 0.211
5.100, 0.217
5.200, 0.198
5.300, 0.204
5.400, 0.191
5.500, 0.188
5.600, 0.187
5.700, 0.198
5.800, 0.225
5.900, 0.208
6.000, 0.207
6.100, 0.201
6.200, 0.200
6.300, 0.216
6.400, 0.195
6.500, 0.184
6.600, 0.190
6.700, 0.175
6.800, 0.176
6.900, 0.176
7.000, 0.197
7.100, 0.186
7.200, 0.194
7.300, 0.173
7.400, 0.205
7.500, 0.184
7.600, 0.201
7.700, 0.193
7.800, 0.188
7.900, 0.177
8.000, 0.206
8.100, 0.184
8.200, 0.192
8.300, 0.166
8.400, 0.207
8.500, 0.204
8.600, 0.179
8.700, 0.174
8.800, 0.178
8.900, 0.186
9.000, 0.181
9.100, 0.172
9.200, 0.184
9.300, 0.194
9.400, 0.191
9.500, 0.179
9.600, 0.183
9.700, 0.174
9.800, 0.183
9.900, 0.197
10.000, 0.190
10.100, 0.185
10.200, 0.175
10.300, 0.195
10.400, 0.191
10.500, 0.173
10.600, 0.179
10.700, 0.177
10.800, 0.178
10.900, 0.183
11.000, 0.191
11.100, 0.182
11.200, 0.194
11.300, 0.194
11.400, 0.172
11.500, 0.183
11.600, 0.207
11.700, 0.189
11.800, 0.183
11.900, 0.170
12.000, 0.172
12.100, 0.203
12.200, 0.190
12.300, 0.190
12.400, 0.186
12.500, 0.212
12.600, 0.196
12.700, 0.201
12.800, 0.213
12.900, 0.204
13.000, 0.186
13.100, 0.216
13.200, 0.186
13.300, 0.177
13.400, 0.199
13.500, 0.200
13.600, 0.204
13.700, 0.175
13.800, 0.179
13.900, 0.195
14.000, 0.186
14.100, 0.183
14.200, 0.193
14.300, 0.185
14.400, 0.180
14.500, 0.189
14.600, 0.198
14.700, 0.189
14.800, 0.187
14.900, 0.190
15.000, 0.195
15.100, 0.208
15.200, 0.219
15.300, 0.210
15.400, 0.209
15.500, 0.201
15.600, 0.188
15.700, 0.203
15.800, 0.222
15.900, 0.218
16.000, 0.200
16.100, 0.192
16.200, 0.222
16.300, 0.240
16.400, 0.226
16.500, 0.191
16.600, 0.201
16.700, 0.206
16.800, 0.198
16.900, 0.192
17.000, 0.216
17.100, 0.197
17.200, 0.193
17.300, 0.188
17.400, 0.148
17.500, 0.175
17.600, 0.165
17.700, 0.171
17.800, 0.160
17.900, 0.163
18.000, 0.160
18.100, 0.161
18.200, 0.192
18.300, 0.184
18.400, 0.225
18.500, 0.173
18.600, 0.186
18.700, 0.170
18.800, 0.161
18.900, 0.172
19.000, 0.190
19.100, 0.179
19.200, 0.180
19.300, 0.163
19.400, 0.185
19.500, 0.166
19.600, 0.185
19.700, 0.188
19.800, 0.163
19.900, 0.174
20.000, 0.192
20.100, 0.191
20.200, 0.189
20.300, 0.169
20.400, 0.143
20.500, 0.170
20.600, 0.157
20.700, 0.148
20.800, 0.150
20.900, 0.188
21.000, 0.198
21.100, 0.173
21.200, 0.181
21.300, 0.187
21.400, 0.145
21.500, 0.178
21.600, 0.156
21.700, 0.185
21.800, 0.171
21.900, 0.178
22.000, 0.173
22.100, 0.166
22.200, 0.180
22.300, 0.181
22.400, 0.167
22.500, 0.176
22.600, 0.171
22.700, 0.187
22.800, 0.162
22.900, 0.154
23.000, 0.158
23.100, 0.173
23.200, 0.163
23.300, 0.153
23.400, 0.134
23.500, 0.181
23.600, 0.137
23.700, 0.139
23.800, 0.143
23.900, 0.145
24.000, 0.149
24.100, 0.133
24.200, 0.135
24.300, 0.143
24.400, 0.188
24.500, 0.175
24.600, 0.177
24.700, 0.181
24.800, 0.184
24.900, 0.194
25.000, 0.208
25.100, 0.212
25.200, 0.204
25.300, 0.199
25.400, 0.205
25.500, 0.174
25.600, 0.194
25.700, 0.191
25.800, 0.177
25.900, 0.202
26.000, 0.197
26.100, 0.208
26.200, 0.218
26.300, 0.210
26.400, 0.219
26.500, 0.223
26.600, 0.213
26.700, 0.195
26.800, 0.209
26.900, 0.223
27.000, 0.233
27.100, 0.193
27.200, 0.188
27.300, 0.205
27.400, 0.198
27.500, 0.186
27.600, 0.186
27.700, 0.186
27.800, 0.209
27.900, 0.190
28.000, 0.213
28.100, 0.221
28.200, 0.239
28.300, 0.212
28.400, 0.219
28.500, 0.172
28.600, 0.164
28.700, 0.162
28.800, 0.190
28.900, 0.211
29.000, 0.213
29.100, 0.242
29.200, 0.231
29.300, 0.226
29.400, 0.236
29.500, 0.248
29.600, 0.200
29.700, 0.180
29.800, 0.187
29.900, 0.181
30.000, 0.204
30.100, 0.192
30.200, 0.195
30.300, 0.208
30.400, 0.228
30.500, 0.207
30.600, 0.203
30.700, 0.181
30.800, 0.210
30.900, 0.235
31.000, 0.215
31.100, 0.260
31.200, 0.258
31.300, 0.251
31.400, 0.260
31.500, 0.248
31.600, 0.235
31.700, 0.241
31.800, 0.223
31.900, 0.236
32.000, 0.240
32.100, 0.249
32.200, 0.257
32.300, 0.226
32.400, 0.182
32.500, 0.158
32.600, 0.191
32.700, 0.211
32.800, 0.183
32.900, 0.163
33.000, 0.163
33.100, 0.163
33.200, 0.165
33.300, 0.189
33.400, 0.188
33.500, 0.156
33.600, 0.171
33.700, 0.159
33.800, 0.183
33.900, 0.184
34.000, 0.166
34.100, 0.171
34.200, 0.139
34.300, 0.162
34.400, 0.173
34.500, 0.178
34.600, 0.194
34.700, 0.166
34.800, 0.175
34.900, 0.188
35.000, 0.170
35.100, 0.183
35.200, 0.171
35.300, 0.181
35.400, 0.171
35.500, 0.169
35.600, 0.182
35.700, 0.165
35.800, 0.176
35.900, 0.171
36.000, 0.200
36.100, 0.166
36.200, 0.172
36.300, 0.166
36.400, 0.161
36.500, 0.165
36.600, 0.162
36.700, 0.173
36.800, 0.183
36.900, 0.182
37.000, 0.165
37.100, 0.171
37.200, 0.178
37.300, 0.176
37.400, 0.178
37.500, 0.174
37.600, 0.173
37.700, 0.153
37.800, 0.149
37.900, 0.153
38.000, 0.153
38.100, 0.166
38.200, 0.145
38.300, 0.166
38.400, 0.180
38.500, 0.167
38.600, 0.139
38.700, 0.164
38.800, 0.157
38.900, 0.140
39.000, 0.120
39.100, 0.147
39.200, 0.158
39.300, 0.158
39.400, 0.174
39.500, 0.165
39.600, 0.166
39.700, 0.165
39.800, 0.165
39.900, 0.173
40.000, 0.167
40.100, 0.176
40.200, 0.168
40.300, 0.151
40.400, 0.158
40.500, 0.172
40.600, 0.156
40.700, 0.179
40.800, 0.181
40.900, 0.169
41.000, 0.186
41.100, 0.165
41.200, 0.163
41.300, 0.149
41.400, 0.150
41.500, 0.158
41.600, 0.169
41.700, 0.168
41.800, 0.173
41.900, 0.167
42.000, 0.166
42.100, 0.169
42.200, 0.173
42.300, 0.163
42.400, 0.175
42.500, 0.164
42.600, 0.175
42.700, 0.170
42.800, 0.158
42.900, 0.157
43.000, 0.174
43.100, 0.185
43.200, 0.167
43.300, 0.163
43.400, 0.172
43.500, 0.181
43.600, 0.174
43.700, 0.160
43.800, 0.159
43.900, 0.142
44.000, 0.135
44.100, 0.129
44.200, 0.141
44.300, 0.133
44.400, 0.145
44.500, 0.140
44.600, 0.146
44.700, 0.164
44.800, 0.165
44.900, 0.159
45.000, 0.148
45.100, 0.144
45.200, 0.143
45.300, 0.144
45.400, 0.149
45.500, 0.163
45.600, 0.174
45.700, 0.172
45.800, 0.166
45.900, 0.158
46.000, 0.178
46.100, 0.162
46.200, 0.155
46.300, 0.156
46.400, 0.173
46.500, 0.176
46.600, 0.166
46.700, 0.155
46.800, 0.159
46.900, 0.163
47.000, 0.168
47.100, 0.153
47.200, 0.170
47.300, 0.156
47.400, 0.154
47.500, 0.161
47.600, 0.149
47.700, 0.147
47.800, 0.147
47.900, 0.145
48.000, 0.147
48.100, 0.152
48.200, 0.155
48.300, 0.156
48.400, 0.152
48.500, 0.161
48.600, 0.143
48.700, 0.149
48.800, 0.153
48.900, 0.151
49.000, 0.152
49.100, 0.150
49.200, 0.163
49.300, 0.144
49.400, 0.148
49.500, 0.142
49.600, 0.149
49.700, 0.175
49.800, 0.136
49.900, 0.149
50.000, 0.153
50.100, 0.142
50.200, 0.168
50.300, 0.154
50.400, 0.148
50.500, 0.154
50.600, 0.153
50.700, 0.152
50.800, 0.151
50.900, 0.162
51.000, 0.167
51.100, 0.170
51.200, 0.164
51.300, 0.175
51.400, 0.174
51.500, 0.149
51.600, 0.163
51.700, 0.153
51.800, 0.150
51.900, 0.145
52.000, 0.167
52.100, 0.149
52.200, 0.145
52.300, 0.158
52.400, 0.158
52.500, 0.173
52.600, 0.171
52.700, 0.173
52.800, 0.172
52.900, 0.160
53.000, 0.164
53.100, 0.184
53.200, 0.138
53.300, 0.146
53.400, 0.153
53.500, 0.144
53.600, 0.158
53.700, 0.154
53.800, 0.149
53.900, 0.181
54.000, 0.156
54.100, 0.156
54.200, 0.169
54.300, 0.191
54.400, 0.173
54.500, 0.161
54.600, 0.139
54.700, 0.144
54.800, 0.136
54.900, 0.146
55.000, 0.152
55.100, 0.146
55.200, 0.152
55.300, 0.163
55.400, 0.158
55.500, 0.154
55.600, 0.142
55.700, 0.142
55.800, 0.174
55.900, 0.160
56.000, 0.152
56.100, 0.157
56.200, 0.169
56.300, 0.160
56.400, 0.151
56.500, 0.131
56.600, 0.136
56.700, 0.146
56.800, 0.135
56.900, 0.154
57.000, 0.168
57.100, 0.155
57.200, 0.165
57.300, 0.159
57.400, 0.158
57.500, 0.174
57.600, 0.160
57.700, 0.161
57.800, 0.166
57.900, 0.172
58.000, 0.169
58.100, 0.184
58.200, 0.178
58.300, 0.228
58.400, 0.187
58.500, 0.181
58.600, 0.178
58.700, 0.176
58.800, 0.177
58.900, 0.148
59.000, 0.146
59.100, 0.148
59.200, 0.138
59.300, 0.168
59.400, 0.152
59.500, 0.154
59.600, 0.144
59.700, 0.169
59.800, 0.175
59.900, 0.171
60.000, 0.174
60.100, 0.175
60.200, 0.180
60.300, 0.175
60.400, 0.184
60.500, 0.171
60.600, 0.175
60.700, 0.177
60.800, 0.170
60.900, 0.189
61.000, 0.175
61.100, 0.179
61.200, 0.176
61.300, 0.166
61.400, 0.164
61.500, 0.188
61.600, 0.180
61.700, 0.197
61.800, 0.163
61.900, 0.172
62.000, 0.160
62.100, 0.159
62.200, 0.185
62.300, 0.175
62.400, 0.170
62.500, 0.199
62.600, 0.203
62.700, 0.183
62.800, 0.176
62.900, 0.184
63.000, 0.178
63.100, 0.172
63.200, 0.189
63.300, 0.180
63.400, 0.178
63.500, 0.193
63.600, 0.183
63.700, 0.174
63.800, 0.162
63.900, 0.174
64.000, 0.169
64.100, 0.179
64.200, 0.175
64.300, 0.173
64.400, 0.180
64.500, 0.186
64.600, 0.183
64.700, 0.188
64.800, 0.179
64.900, 0.174
65.000, 0.169
65.100, 0.171
65.200, 0.185
65.300, 0.184
65.400, 0.179
65.500, 0.164
65.600, 0.173
65.700, 0.178
65.800, 0.187
65.900, 0.192
66.000, 0.173
66.100, 0.186
66.200, 0.192
66.300, 0.178
66.400, 0.177
66.500, 0.196
66.600, 0.191
66.700, 0.205
66.800, 0.213
66.900, 0.178
67.000, 0.176
67.100, 0.203
67.200, 0.205
67.300, 0.186
67.400, 0.209
67.500, 0.214
67.600, 0.183
67.700, 0.181
67.800, 0.182
67.900, 0.179
68.000, 0.181
68.100, 0.184
68.200, 0.182
68.300, 0.179
68.400, 0.183
68.500, 0.168
68.600, 0.189
68.700, 0.173
68.800, 0.182
68.900, 0.163
69.000, 0.180
69.100, 0.168
69.200, 0.177
69.300, 0.177
69.400, 0.170
69.500, 0.179
69.600, 0.160
69.700, 0.178
69.800, 0.184
69.900, 0.167
70.000, 0.182
70.100, 0.170
70.200, 0.178
70.300, 0.163
70.400, 0.176
70.500, 0.172
70.600, 0.188
70.700, 0.190
70.800, 0.208
70.900, 0.196
71.000, 0.183
71.100, 0.167
71.200, 0.185
71.300, 0.180
71.400, 0.185
71.500, 0.186
71.600, 0.163
71.700, 0.175
71.800, 0.171
71.900, 0.163
72.000, 0.186
72.100, 0.167
72.200, 0.167
72.300, 0.171
72.400, 0.177
72.500, 0.192
72.600, 0.180
72.700, 0.176
72.800, 0.189
72.900, 0.166
73.000, 0.176
73.100, 0.163
73.200, 0.177
73.300, 0.193
73.400, 0.194
73.500, 0.182
73.600, 0.171
73.700, 0.180
73.800, 0.186
73.900, 0.201
74.000, 0.197
74.100, 0.191
74.200, 0.180
74.300, 0.159
74.400, 0.156
74.500, 0.159
74.600, 0.171
74.700, 0.157
74.800, 0.171
74.900, 0.194
75.000, 0.204
75.100, 0.181
75.200, 0.195
75.300, 0.199
75.400, 0.218
75.500, 0.197
75.600, 0.210
75.700, 0.211
75.800, 0.242
75.900, 0.195
76.000, 0.168
76.100, 0.186
76.200, 0.173
76.300, 0.183
76.400, 0.182
76.500, 0.192
76.600, 0.183
76.700, 0.181
76.800, 0.193
76.900, 0.184
77.000, 0.186
77.100, 0.182
77.200, 0.166
77.300, 0.178
77.400, 0.193
77.500, 0.186
77.600, 0.215
77.700, 0.202
77.800, 0.192
77.900, 0.191
78.000, 0.216
78.100, 0.198
78.200, 0.203
78.300, 0.196
78.400, 0.226
78.500, 0.203
78.600, 0.192
78.700, 0.205
78.800, 0.213
78.900, 0.204
79.000, 0.192
79.100, 0.199
79.200, 0.168
79.300, 0.181
79.400, 0.184
79.500, 0.203
79.600, 0.218
79.700, 0.215
79.800, 0.198
79.900, 0.199
80.000, 0.184
80.100, 0.192
80.200, 0.190
80.300, 0.195
80.400, 0.187
80.500, 0.187
80.600, 0.180
80.700, 0.186
80.800, 0.190
80.900, 0.196
81.000, 0.201
81.100, 0.212
81.200, 0.201
81.300, 0.178
81.400, 0.177
81.500, 0.192
81.600, 0.207
81.700, 0.225
81.800, 0.198
81.900, 0.196
82.000, 0.162
82.100, 0.164
82.200, 0.184
82.300, 0.190
82.400, 0.191
82.500, 0.195
82.600, 0.181
82.700, 0.197
82.800, 0.189
82.900, 0.208
83.000, 0.198
83.100, 0.214
83.200, 0.207
83.300, 0.184
83.400, 0.191
83.500, 0.187
83.600, 0.170
83.700, 0.175
83.800, 0.187
83.900, 0.183
84.000, 0.197
84.100, 0.186
84.200, 0.171
84.300, 0.184
84.400, 0.204
84.500, 0.181
84.600, 0.185
84.700, 0.198
84.800, 0.192
84.900, 0.187
85.000, 0.182
85.100, 0.191
85.200, 0.182
85.300, 0.165
85.400, 0.179
85.500, 0.188
85.600, 0.182
85.700, 0.192
85.800, 0.196
85.900, 0.221
86.000, 0.198
86.100, 0.211
86.200, 0.203
86.300, 0.208
86.400, 0.193
86.500, 0.197
86.600, 0.186
86.700, 0.188
86.800, 0.235
86.900, 0.215
87.000, 0.231
87.100, 0.202
87.200, 0.182
87.300, 0.192
87.400, 0.192
87.500, 0.201
87.600, 0.188
87.700, 0.195
87.800, 0.183
87.900, 0.209
88.000, 0.184
88.100, 0.193
88.200, 0.194
88.300, 0.170
88.400, 0.184
88.500, 0.185
88.600, 0.200
88.700, 0.229
88.800, 0.228
88.900, 0.204
89.000, 0.203
89.100, 0.173
89.200, 0.179
89.300, 0.171
89.400, 0.180
89.500, 0.171
89.600, 0.182
89.700, 0.176
89.800, 0.159
89.900, 0.179
90.000, 0.189
90.100, 0.188
90.200, 0.186
90.300, 0.220
90.400, 0.191
90.500, 0.206
90.600, 0.208
90.700, 0.200
90.800, 0.194
90.900, 0.219
91.000, 0.225
91.100, 0.206
91.200, 0.197
91.300, 0.200
91.400, 0.201
91.500, 0.210
91.600, 0.219
91.700, 0.193
91.800, 0.202
91.900, 0.210
92.000, 0.214
92.100, 0.221
92.200, 0.235
92.300, 0.197
92.400, 0.187
92.500, 0.196
92.600, 0.206
92.700, 0.181
92.800, 0.180
92.900, 0.190
93.000, 0.175
93.100, 0.197
93.200, 0.184
93.300, 0.148
93.400, 0.168
93.500, 0.174
93.600, 0.177
93.700, 0.183
93.800, 0.182
93.900, 0.171
94.000, 0.182
94.100, 0.177
94.200, 0.176
94.300, 0.144
94.400, 0.174
94.500, 0.177
94.600, 0.173
94.700, 0.167
94.800, 0.173
94.900, 0.170
95.000, 0.138
95.100, 0.137
95.200, 0.142
95.300, 0.145
95.400, 0.147
95.500, 0.148
95.600, 0.133
95.700, 0.144
95.800, 0.152
95.900, 0.149
96.000, 0.155
96.100, 0.163
96.200, 0.164
96.300, 0.167
96.400, 0.171
96.500, 0.186
96.600, 0.187
96.700, 0.191
96.800, 0.166
96.900, 0.171
97.000, 0.177
97.100, 0.196
97.200, 0.183
97.300, 0.160
97.400, 0.160
97.500, 0.179
97.600, 0.167
97.700, 0.148
97.800, 0.168
97.900, 0.178
98.000, 0.173
98.100, 0.167
98.200, 0.150
98.300, 0.177
98.400, 0.163
98.500, 0.195
98.600, 0.167
98.700, 0.165
98.800, 0.160
98.900, 0.173
99.000, 0.184
99.100, 0.190
99.200, 0.178
99.300, 0.172
99.400, 0.167
99.500, 0.167
99.600, 0.159
99.700, 0.162
99.800, 0.154
99.900, 0.153
100.000, 0.160
100.100, 0.171
100.200, 0.170
100.300, 0.167
100.400, 0.173
100.500, 0.179
100.600, 0.180
100.700, 0.175
100.800, 0.170
100.900, 0.167
101.000, 0.157
101.100, 0.168
101.200, 0.162
101.300, 0.169
101.400, 0.182
101.500, 0.183
101.600, 0.189
101.700, 0.176
101.800, 0.185
101.900, 0.193
102.000, 0.202
102.100, 0.198
102.200, 0.175
102.300, 0.178
102.400, 0.184
102.500, 0.183
102.600, 0.179
102.700, 0.165
102.800, 0.181
102.900, 0.181
103.000, 0.192
103.100, 0.159
103.200, 0.153
103.300, 0.160
103.400, 0.149
103.500, 0.177
103.600, 0.181
103.700, 0.165
103.800, 0.190
103.900, 0.196
104.000, 0.174
104.100, 0.184
104.200, 0.184
104.300, 0.178
104.400, 0.174
104.500, 0.149
104.600, 0.161
104.700, 0.185
104.800, 0.191
104.900, 0.167
105.000, 0.182
105.100, 0.202
105.200, 0.211
105.300, 0.178
105.400, 0.183
105.500, 0.184
105.600, 0.196
105.700, 0.176
105.800, 0.174
105.900, 0.172
106.000, 0.195
106.100, 0.200
106.200, 0.199
106.300, 0.182
106.400, 0.170
106.500, 0.181
106.600, 0.194
106.700, 0.205
106.800, 0.203
106.900, 0.209
107.000, 0.191
107.100, 0.217
107.200, 0.197
107.300, 0.197
107.400, 0.171
107.500, 0.198
107.600, 0.183
107.700, 0.202
107.800, 0.167
107.900, 0.203
108.000, 0.192
108.100, 0.181
108.200, 0.191
108.300, 0.225
108.400, 0.213
108.500, 0.231
108.600, 0.209
108.700, 0.193
108.800, 0.175
108.900, 0.184
109.000, 0.176
109.100, 0.178
109.200, 0.171
109.300, 0.198
109.400, 0.177
109.500, 0.167
109.600, 0.161
109.700, 0.169
109.800, 0.186
109.900, 0.183
110.000, 0.171
110.100, 0.156
110.200, 0.163
110.300, 0.175
110.400, 0.164
110.500, 0.184
110.600, 0.175
110.700, 0.164
110.800, 0.194
110.900, 0.192
111.000, 0.190
111.100, 0.224
111.200, 0.212
111.300, 0.180
111.400, 0.198
111.500, 0.193
111.600, 0.182
111.700, 0.174
111.800, 0.186
111.900, 0.178
112.000, 0.182
112.100, 0.187
112.200, 0.187
112.300, 0.187
112.400, 0.177
112.500, 0.191
112.600, 0.194
112.700, 0.182
112.800, 0.186
112.900, 0.200
113.000, 0.213
113.100, 0.216
113.200, 0.186
113.300, 0.203
113.400, 0.206
113.500, 0.204
113.600, 0.201
113.700, 0.193
113.800, 0.179
113.900, 0.177
114.000, 0.182
114.100, 0.157
114.200, 0.184
114.300, 0.187
114.400, 0.191
114.500, 0.175
114.600, 0.199
114.700, 0.181
114.800, 0.174
114.900, 0.197
115.000, 0.186
115.100, 0.199
115.200, 0.204
115.300, 0.191
115.400, 0.174
115.500, 0.163
115.600, 0.189
115.700, 0.197
115.800, 0.203
115.900, 0.188
116.000, 0.195
116.100, 0.201
116.200, 0.187
116.300, 0.175
116.400, 0.179
116.500, 0.180
116.600, 0.175
116.700, 0.179
116.800, 0.179
116.900, 0.169
117.000, 0.185
117.100, 0.165
117.200, 0.139
117.300, 0.171
117.400, 0.168
117.500, 0.201
117.600, 0.162
117.700, 0.180
117.800, 0.183
117.900, 0.176
118.000, 0.187
118.100, 0.177
118.200, 0.184
118.300, 0.182
118.400, 0.224
118.500, 0.216
118.600, 0.190
118.700, 0.202
118.800, 0.193
118.900, 0.185
119.000, 0.189
119.100, 0.169
119.200, 0.156
119.300, 0.160
119.400, 0.157
119.500, 0.164
119.600, 0.166
119.700, 0.171
119.800, 0.160
119.900, 0.161
120.000, 0.150
120.100, 0.168
120.200, 0.165
120.300, 0.163
120.400, 0.173
120.500, 0.155
120.600, 0.187
120.700, 0.163
120.800, 0.205
120.900, 0.189
121.000, 0.185
121.100, 0.202
121.200, 0.204
121.300, 0.202
121.400, 0.184
121.500, 0.174
121.600, 0.189
121.700, 0.188
121.800, 0.178
121.900, 0.171
122.000, 0.181
122.100, 0.167
122.200, 0.167
122.300, 0.170
122.400, 0.156
122.500, 0.182
122.600, 0.162
122.700, 0.170
122.800, 0.169
122.900, 0.168
123.000, 0.166
123.100, 0.161
123.200, 0.177
123.300, 0.175
123.400, 0.159
123.500, 0.174
123.600, 0.161
123.700, 0.154
123.800, 0.155
123.900, 0.186
124.000, 0.169
124.100, 0.164
124.200, 0.150
124.300, 0.158
124.400, 0.160
124.500, 0.162
124.600, 0.159
124.700, 0.156
124.800, 0.168
124.900, 0.157
125.000, 0.172
125.100, 0.166
125.200, 0.153
125.300, 0.161
125.400, 0.170
125.500, 0.140
125.600, 0.162
125.700, 0.168
125.800, 0.174
125.900, 0.171
126.000, 0.185
126.100, 0.193
126.200, 0.183
126.300, 0.158
126.400, 0.156
126.500, 0.143
126.600, 0.147
126.700, 0.149
126.800, 0.182
126.900, 0.185
127.000, 0.152
127.100, 0.171
127.200, 0.161
127.300, 0.186
127.400, 0.165
127.500, 0.177
127.600, 0.179
127.700, 0.152
127.800, 0.163
127.900, 0.163
128.000, 0.162
128.100, 0.156
128.200, 0.142
128.300, 0.150
128.400, 0.168
128.500, 0.172
128.600, 0.160
128.700, 0.147
128.800, 0.178
128.900, 0.156
129.000, 0.169
129.100, 0.167
129.200, 0.152
129.300, 0.175
129.400, 0.165
129.500, 0.150
129.600, 0.166
129.700, 0.183
129.800, 0.132
129.900, 0.166
130.000, 0.157
130.100, 0.145
130.200, 0.163
130.300, 0.151
130.400, 0.148
130.500, 0.164
130.600, 0.186
130.700, 0.187
130.800, 0.169
130.900, 0.162
131.000, 0.179
131.100, 0.176
131.200, 0.176
131.300, 0.182
131.400, 0.178
131.500, 0.188
131.600, 0.161
131.700, 0.180
131.800, 0.160
131.900, 0.135
132.000, 0.159
132.100, 0.144
132.200, 0.151
132.300, 0.129
132.400, 0.136
132.500, 0.150
132.600, 0.141
132.700, 0.154
132.800, 0.136
132.900, 0.150
133.000, 0.161
133.100, 0.168
133.200, 0.146
133.300, 0.156
133.400, 0.151
133.500, 0.137
133.600, 0.149
133.700, 0.152
133.800, 0.156
133.900, 0.151
134.000, 0.169
134.100, 0.129
134.200, 0.147
134.300, 0.154
134.400, 0.142
134.500, 0.148
134.600, 0.169
134.700, 0.153
134.800, 0.156
134.900, 0.141
135.000, 0.132
135.100, 0.139
135.200, 0.133
135.300, 0.150
135.400, 0.151
135.500, 0.145
135.600, 0.152
135.700, 0.156
135.800, 0.158
135.900, 0.145
136.000, 0.129
136.100, 0.123
136.200, 0.134
136.300, 0.124
136.400, 0.140
136.500, 0.160
136.600, 0.160
136.700, 0.174
136.800, 0.153
136.900, 0.167
137.000, 0.159
137.100, 0.157
137.200, 0.161
137.300, 0.142
137.400, 0.135
137.500, 0.150
137.600, 0.152
137.700, 0.161
137.800, 0.169
137.900, 0.149
138.000, 0.152
138.100, 0.157
138.200, 0.178
138.300, 0.158
138.400, 0.173
138.500, 0.167
138.600, 0.182
138.700, 0.190
138.800, 0.171
138.900, 0.149
139.000, 0.151
139.100, 0.171
139.200, 0.170
139.300, 0.155
139.400, 0.172
139.500, 0.164
139.600, 0.182
139.700, 0.157
139.800, 0.174
139.900, 0.145
140.000, 0.175
140.100, 0.132
140.200, 0.159
140.300, 0.155
140.400, 0.166
140.500, 0.156
140.600, 0.177
140.700, 0.198
140.800, 0.193
140.900, 0.163
141.000, 0.163
141.100, 0.153
141.200, 0.130
141.300, 0.137
141.400, 0.132
141.500, 0.147
141.600, 0.144
141.700, 0.156
141.800, 0.150
141.900, 0.154
142.000, 0.192
142.100, 0.172
142.200, 0.158
142.300, 0.164
142.400, 0.147
142.500, 0.158
142.600, 0.162
142.700, 0.161
142.800, 0.143
142.900, 0.139
143.000, 0.146
143.100, 0.118
143.200, 0.130
143.300, 0.119
143.400, 0.131
143.500, 0.136
143.600, 0.134
143.700, 0.123
143.800, 0.128
143.900, 0.134
144.000, 0.119
144.100, 0.117
144.200, 0.147
144.300, 0.135
144.400, 0.117
144.500, 0.146
144.600, 0.127
144.700, 0.149
144.800, 0.143
144.900, 0.158
145.000, 0.148
145.100, 0.139
145.200, 0.156
145.300, 0.171
145.400, 0.167
145.500, 0.154
145.600, 0.173
145.700, 0.152
145.800, 0.177
145.900, 0.165
146.000, 0.150
146.100, 0.176
146.200, 0.168
146.300, 0.159
146.400, 0.151
146.500, 0.154
146.600, 0.128
146.700, 0.159
146.800, 0.146
146.900, 0.150
147.000, 0.152
147.100, 0.143
147.200, 0.160
147.300, 0.158
147.400, 0.159
147.500, 0.163
147.600, 0.153
147.700, 0.165
147.800, 0.159
147.900, 0.158
148.000, 0.143
148.100, 0.126
148.200, 0.160
148.300, 0.144
148.400, 0.167
148.500, 0.170
148.600, 0.178
148.700, 0.155
148.800, 0.149
148.900, 0.150
149.000, 0.173
149.100, 0.158
149.200, 0.180
149.300, 0.157
149.400, 0.183
149.500, 0.172
149.600, 0.189
149.700, 0.169
149.800, 0.177
149.900, 0.174
150.000, 0.164
150.100, 0.160
150.200, 0.142
150.300, 0.126
150.400, 0.127
150.500, 0.121
150.600, 0.129
150.700, 0.149
150.800, 0.145
150.900, 0.152
151.000, 0.164
151.100, 0.145
151.200, 0.150
151.300, 0.158
151.400, 0.151
151.500, 0.130
151.600, 0.134
151.700, 0.116
151.800, 0.122
151.900, 0.106
152.000, 0.123
152.100, 0.129
152.200, 0.139
152.300, 0.157
152.400, 0.134
152.500, 0.146
152.600, 0.161
152.700, 0.150
152.800, 0.137
152.900, 0.127
153.000, 0.118
153.100, 0.146
153.200, 0.162
153.300, 0.144
153.400, 0.143
153.500, 0.155
153.600, 0.150
153.700, 0.144
153.800, 0.142
153.900, 0.144
154.000, 0.145
154.100, 0.148
154.200, 0.125
154.300, 0.144
154.400, 0.166
154.500, 0.160
154.600, 0.166
154.700, 0.167
154.800, 0.154
154.900, 0.164
155.000, 0.145
155.100, 0.141
155.200, 0.165
155.300, 0.140
155.400, 0.177
155.500, 0.140
155.600, 0.156
155.700, 0.151
155.800, 0.137
155.900, 0.140
156.000, 0.128
156.100, 0.144
156.200, 0.146
156.300, 0.156
156.400, 0.127
156.500, 0.140
156.600, 0.140
156.700, 0.138
156.800, 0.137
156.900, 0.146
157.000, 0.139
157.100, 0.121
157.200, 0.117
157.300, 0.125
157.400, 0.140
157.500, 0.140
157.600, 0.146
157.700, 0.162
157.800, 0.160
157.900, 0.143
158.000, 0.159
158.100, 0.167
158.200, 0.180
158.300, 0.180
158.400, 0.190
158.500, 0.187
158.600, 0.212
158.700, 0.204
158.800, 0.169
158.900, 0.156
159.000, 0.167
159.100, 0.193
159.200, 0.178
159.300, 0.176
159.400, 0.177
159.500, 0.196
159.600, 0.179
159.700, 0.189
159.800, 0.176
159.900, 0.176
160.000, 0.147
160.100, 0.167
160.200, 0.164
160.300, 0.155
160.400, 0.167
160.500, 0.164
160.600, 0.159
160.700, 0.154
160.800, 0.174
160.900, 0.134
161.000, 0.134
161.100, 0.149
161.200, 0.130
161.300, 0.137
161.400, 0.152
161.500, 0.172
161.600, 0.182
161.700, 0.147
161.800, 0.156
161.900, 0.154
162.000, 0.154
162.100, 0.165
162.200, 0.157
162.300, 0.139
162.400, 0.152
162.500, 0.142
162.600, 0.153
162.700, 0.140
162.800, 0.140
162.900, 0.153
163.000, 0.141
163.100, 0.128
163.200, 0.138
163.300, 0.163
163.400, 0.173
163.500, 0.158
163.600, 0.167
163.700, 0.161
163.800, 0.158
163.900, 0.158
164.000, 0.141
164.100, 0.160
164.200, 0.174
164.300, 0.165
164.400, 0.171
164.500, 0.160
164.600, 0.166
164.700, 0.166
164.800, 0.175
164.900, 0.183
165.000, 0.182
165.100, 0.158
165.200, 0.153
165.300, 0.155
165.400, 0.140
165.500, 0.140
165.600, 0.172
165.700, 0.169
165.800, 0.183
165.900, 0.178
166.000, 0.163
166.100, 0.166
166.200, 0.152
166.300, 0.153
166.400, 0.151
166.500, 0.157
166.600, 0.147
166.700, 0.159
166.800, 0.157
166.900, 0.154
167.000, 0.146
167.100, 0.160
167.200, 0.167
167.300, 0.156
167.400, 0.133
167.500, 0.142
167.600, 0.124
167.700, 0.122
167.800, 0.125
167.900, 0.131
168.000, 0.144
168.100, 0.167
168.200, 0.182
168.300, 0.160
168.400, 0.140
168.500, 0.148
168.600, 0.123
168.700, 0.133
168.800, 0.129
168.900, 0.151
169.000, 0.124
169.100, 0.139
169.200, 0.136
169.300, 0.135
169.400, 0.149
169.500, 0.163
169.600, 0.133
169.700, 0.147
169.800, 0.133
169.900, 0.144
170.000, 0.155
170.100, 0.140
170.200, 0.136
170.300, 0.126
170.400, 0.118
170.500, 0.128
170.600, 0.134
170.700, 0.137
170.800, 0.142
170.900, 0.143
171.000, 0.141
171.100, 0.154
171.200, 0.142
171.300, 0.132
171.400, 0.145
171.500, 0.156
171.600, 0.149
171.700, 0.169
171.800, 0.181
171.900, 0.178
172.000, 0.176
172.100, 0.188
172.200, 0.198
172.300, 0.196
172.400, 0.186
172.500, 0.232
172.600, 0.190
172.700, 0.152
172.800, 0.164
172.900, 0.157
173.000, 0.167
173.100, 0.137
173.200, 0.151
173.300, 0.169
173.400, 0.171
173.500, 0.184
173.600, 0.176
173.700, 0.182
173.800, 0.155
173.900, 0.149
174.000, 0.159
174.100, 0.184
174.200, 0.165
174.300, 0.166
174.400, 0.175
174.500, 0.162
174.600, 0.166
174.700, 0.167
174.800, 0.187
174.900, 0.152
175.000, 0.150
175.100, 0.155
175.200, 0.168
175.300, 0.169
175.400, 0.159
175.500, 0.178
175.600, 0.190
175.700, 0.194
175.800, 0.168
175.900, 0.160
176.000, 0.160
176.100, 0.169
176.200, 0.186
176.300, 0.193
176.400, 0.194
176.500, 0.194
176.600, 0.188
176.700, 0.178
176.800, 0.156
176.900, 0.158
177.000, 0.139
177.100, 0.170
177.200, 0.145
177.300, 0.173
177.400, 0.160
177.500, 0.150
177.600, 0.152
177.700, 0.149
177.800, 0.173
177.900, 0.172
178.000, 0.149
178.100, 0.147
178.200, 0.169
178.300, 0.137
178.400, 0.134
178.500, 0.146
178.600, 0.144
178.700, 0.123
178.800, 0.154
178.900, 0.159
179.000, 0.138
179.100, 0.163
179.200, 0.152
179.300, 0.171
179.400, 0.174
179.500, 0.195
179.600, 0.187
179.700, 0.174
179.800, 0.142
179.900, 0.141
180.000, 0.137
180.100, 0.152
180.200, 0.135
180.300, 0.147
180.400, 0.153
180.500, 0.154
180.600, 0.138
180.700, 0.161
180.800, 0.157
180.900, 0.147
181.000, 0.149
181.100, 0.147
181.200, 0.136
181.300, 0.179
181.400, 0.174
181.500, 0.177
181.600, 0.178
181.700, 0.178
181.800, 0.150
181.900, 0.165
182.000, 0.167
182.100, 0.160
182.200, 0.160
182.300, 0.144
182.400, 0.150
182.500, 0.172
182.600, 0.171
182.700, 0.176
182.800, 0.184
182.900, 0.168
183.000, 0.161
183.100, 0.159
183.200, 0.178
183.300, 0.167
183.400, 0.137
183.500, 0.145
183.600, 0.175
183.700, 0.187
183.800, 0.193
183.900, 0.175
184.000, 0.155
184.100, 0.134
184.200, 0.158
184.300, 0.144
184.400, 0.159
184.500, 0.133
184.600, 0.137
184.700, 0.145
184.800, 0.167
184.900, 0.155
185.000, 0.157
185.100, 0.159
185.200, 0.137
185.300, 0.135
185.400, 0.129
185.500, 0.121
185.600, 0.155
185.700, 0.146
185.800, 0.162
185.900, 0.158
186.000, 0.198
186.100, 0.201
186.200, 0.216
186.300, 0.171
186.400, 0.162
186.500, 0.175
186.600, 0.168
186.700, 0.200
186.800, 0.193
186.900, 0.166
187.000, 0.181
187.100, 0.195
187.200, 0.178
187.300, 0.164
187.400, 0.172
187.500, 0.178
187.600, 0.161
187.700, 0.191
187.800, 0.163
187.900, 0.137
188.000, 0.128
188.100, 0.129
188.200, 0.130
188.300, 0.110
188.400, 0.113
188.500, 0.125
188.600, 0.153
188.700, 0.124
188.800, 0.137
188.900, 0.123
189.000, 0.138
189.100, 0.128
189.200, 0.158
189.300, 0.148
189.400, 0.150
189.500, 0.138
189.600, 0.146
189.700, 0.148
189.800, 0.142
189.900, 0.140
190.000, 0.142
190.100, 0.159
190.200, 0.147
190.300, 0.158
190.400, 0.138
190.500, 0.138
190.600, 0.156
190.700, 0.162
190.800, 0.145
190.900, 0.163
191.000, 0.155
191.100, 0.154
191.200, 0.150
191.300, 0.157
191.400, 0.146
191.500, 0.153
191.600, 0.153
191.700, 0.136
191.800, 0.174
191.900, 0.150
192.000, 0.169
192.100, 0.153
192.200, 0.163
192.300, 0.147
192.400, 0.149
192.500, 0.170
192.600, 0.138
192.700, 0.150
192.800, 0.159
192.900, 0.181
193.000, 0.164
193.100, 0.190
193.200, 0.163
193.300, 0.170
193.400, 0.177
193.500, 0.169
193.600, 0.174
193.700, 0.146
193.800, 0.154
193.900, 0.152
194.000, 0.174
194.100, 0.174
194.200, 0.173
194.300, 0.163
194.400, 0.142
194.500, 0.144
194.600, 0.130
194.700, 0.139
194.800, 0.129
194.900, 0.142
195.000, 0.115
195.100, 0.113
195.200, 0.135
195.300, 0.138
195.400, 0.155
195.500, 0.150
195.600, 0.151
195.700, 0.132
195.800, 0.129
195.900, 0.134
196.000, 0.158
196.100, 0.139
196.200, 0.139
196.300, 0.146
196.400, 0.145
196.500, 0.138
196.600, 0.151
196.700, 0.149
196.800, 0.153
196.900, 0.125
197.000, 0.132
197.100, 0.153
197.200, 0.176
197.300, 0.174
197.400, 0.159
197.500, 0.191
197.600, 0.211
197.700, 0.208
197.800, 0.185
197.900, 0.190
198.000, 0.188
198.100, 0.166
198.200, 0.178
198.300, 0.169
198.400, 0.206
198.500, 0.210
198.600, 0.192
198.700, 0.190
198.800, 0.200
198.900, 0.207
199.000, 0.202
199.100, 0.183
199.200, 0.177
199.300, 0.159
199.400, 0.176
199.500, 0.178
199.600, 0.177
199.700, 0.161
199.800, 0.179
199.900, 0.182
200.000, 0.167
200.100, 0.161
200.200, 0.172
200.300, 0.184
200.400, 0.185
200.500, 0.164
200.600, 0.171
200.700, 0.159
200.800, 0.160
200.900, 0.170
201.000, 0.172
201.100, 0.180
201.200, 0.181
201.300, 0.186
201.400, 0.172
201.500, 0.215
201.600, 0.169
201.700, 0.160
201.800, 0.158
201.900, 0.187
202.000, 0.170
202.100, 0.171
202.200, 0.175
202.300, 0.156
202.400, 0.136
202.500, 0.173
202.600, 0.175
202.700, 0.159
202.800, 0.155
202.900, 0.168
203.000, 0.158
203.100, 0.139
203.200, 0.152
203.300, 0.155
203.400, 0.148
203.500, 0.141
203.600, 0.135
203.700, 0.136
203.800, 0.149
203.900, 0.172
204.000, 0.175
204.100, 0.169
204.200, 0.171
204.300, 0.161
204.400, 0.156
204.500, 0.131
204.600, 0.145
204.700, 0.143
204.800, 0.123
204.900, 0.136
205.000, 0.133
205.100, 0.156
205.200, 0.171
205.300, 0.145
205.400, 0.147
205.500, 0.147
205.600, 0.141
205.700, 0.138
205.800, 0.139
205.900, 0.152
206.000, 0.141
206.100, 0.153
206.200, 0.162
206.300, 0.171
206.400, 0.152
206.500, 0.168
206.600, 0.160
206.700, 0.159
206.800, 0.185
206.900, 0.178
207.000, 0.170
207.100, 0.153
207.200, 0.141
207.300, 0.135
207.400, 0.155
207.500, 0.157
207.600, 0.150
207.700, 0.152
207.800, 0.144
207.900, 0.151
208.000, 0.150
208.100, 0.159
208.200, 0.168
208.300, 0.178
208.400, 0.182
208.500, 0.179
208.600, 0.175
208.700, 0.163
208.800, 0.171
208.900, 0.168
209.000, 0.204
209.100, 0.191
209.200, 0.179
209.300, 0.179
209.400, 0.168
209.500, 0.175
209.600, 0.177
209.700, 0.183
209.800, 0.200
209.900, 0.187
210.000, 0.184
210.100, 0.167
210.200, 0.157
210.300, 0.158
210.400, 0.174
210.500, 0.190
210.600, 0.196
210.700, 0.153
210.800, 0.163
210.900, 0.160
211.000, 0.158
211.100, 0.172
211.200, 0.170
211.300, 0.169
211.400, 0.185
211.500, 0.162
211.600, 0.149
211.700, 0.152
211.800, 0.151
211.900, 0.181
212.000, 0.174
212.100, 0.162
212.200, 0.171
212.300, 0.174
212.400, 0.170
212.500, 0.185
212.600, 0.170
212.700, 0.157
212.800, 0.176
212.900, 0.168
213.000, 0.173
213.100, 0.158
213.200, 0.170
213.300, 0.158
213.400, 0.167
213.500, 0.184
213.600, 0.187
213.700, 0.165
213.800, 0.165
213.900, 0.177
214.000, 0.178
214.100, 0.174
214.200, 0.180
214.300, 0.190
214.400, 0.169
214.500, 0.177
214.600, 0.195
214.700, 0.185
214.800, 0.171
214.900, 0.164
215.000, 0.174
215.100, 0.165
215.200, 0.157
215.300, 0.164
215.400, 0.160
215.500, 0.168
215.600, 0.148
215.700, 0.159
215.800, 0.150
215.900, 0.157
216.000, 0.162
216.100, 0.144
216.200, 0.148
216.300, 0.158
216.400, 0.160
216.500, 0.171
216.600, 0.166
216.700, 0.161
216.800, 0.174
216.900, 0.189
217.000, 0.175
217.100, 0.213
217.200, 0.186
217.300, 0.173
217.400, 0.174
217.500, 0.164
217.600, 0.167
217.700, 0.160
217.800, 0.206
217.900, 0.162
218.000, 0.172
218.100, 0.195
218.200, 0.166
218.300, 0.170
218.400, 0.197
218.500, 0.155
218.600, 0.173
218.700, 0.169
218.800, 0.172
218.900, 0.169
219.000, 0.169
219.100, 0.159
219.200, 0.156
219.300, 0.135
219.400, 0.148
219.500, 0.163
219.600, 0.172
219.700, 0.205
219.800, 0.165
219.900, 0.179
220.000, 0.165
220.100, 0.153
220.200, 0.176
220.300, 0.159
220.400, 0.147
220.500, 0.162
220.600, 0.144
220.700, 0.148
220.800, 0.167
220.900, 0.163
221.000, 0.150
221.100, 0.162
221.200, 0.157
221.300, 0.158
221.400, 0.167
221.500, 0.164
221.600, 0.160
221.700, 0.178
221.800, 0.177
221.900, 0.191
222.000, 0.189
222.100, 0.180
222.200, 0.181
222.300, 0.188
222.400, 0.184
222.500, 0.183
222.600, 0.201
222.700, 0.180
222.800, 0.163
222.900, 0.168
223.000, 0.168
223.100, 0.180
223.200, 0.168
223.300, 0.148
223.400, 0.173
223.500, 0.144
223.600, 0.140
223.700, 0.145
223.800, 0.155
223.900, 0.184
224.000, 0.175
224.100, 0.154
224.200, 0.152
224.300, 0.149
224.400, 0.157
224.500, 0.158
224.600, 0.169
224.700, 0.188
224.800, 0.181
224.900, 0.177
225.000, 0.180
225.100, 0.163
225.200, 0.179
225.300, 0.178
225.400, 0.169
225.500, 0.163
225.600, 0.150
225.700, 0.139
225.800, 0.155
225.900, 0.145
226.000, 0.155
226.100, 0.165
226.200, 0.169
226.300, 0.148
226.400, 0.150
226.500, 0.168
226.600, 0.158
226.700, 0.149
226.800, 0.174
226.900, 0.188
227.000, 0.182
227.100, 0.140
227.200, 0.146
227.300, 0.143
227.400, 0.154
227.500, 0.152
227.600, 0.136
227.700, 0.141
227.800, 0.140
227.900, 0.139
228.000, 0.144
228.100, 0.139
228.200, 0.129
228.300, 0.179
228.400, 0.173
228.500, 0.176
228.600, 0.155
228.700, 0.172
228.800, 0.155
228.900, 0.154
229.000, 0.160
229.100, 0.153
229.200, 0.154
229.300, 0.179
229.400, 0.176
229.500, 0.160
229.600, 0.178
229.700, 0.153
229.800, 0.173
229.900, 0.158
230.000, 0.162
230.100, 0.185
230.200, 0.175
230.300, 0.168
230.400, 0.176
230.500, 0.190
230.600, 0.163
230.700, 0.157
230.800, 0.173
230.900, 0.157
231.000, 0.171
231.100, 0.181
231.200, 0.202
231.300, 0.167
231.400, 0.166
231.500, 0.176
231.600, 0.172
231.700, 0.175
231.800, 0.159
231.900, 0.168
232.000, 0.163
232.100, 0.152
232.200, 0.164
232.300, 0.180
232.400, 0.175
232.500, 0.152
232.600, 0.166
232.700, 0.199
232.800, 0.186
232.900, 0.150
233.000, 0.161
233.100, 0.156
233.200, 0.166
233.300, 0.178
233.400, 0.195
233.500, 0.168
233.600, 0.188
233.700, 0.160
233.800, 0.162
233.900, 0.133
234.000, 0.131
234.100, 0.136
234.200, 0.138
234.300, 0.144
234.400, 0.155
234.500, 0.151
234.600, 0.156
234.700, 0.158
234.800, 0.189
234.900, 0.166
235.000, 0.162
235.100, 0.180
235.200, 0.186
235.300, 0.171
235.400, 0.193
235.500, 0.183
235.600, 0.175
235.700, 0.175
235.800, 0.191
235.900, 0.165
236.000, 0.159
236.100, 0.160
236.200, 0.154
236.300, 0.175
236.400, 0.176
236.500, 0.213
236.600, 0.181
236.700, 0.180
236.800, 0.162
236.900, 0.161
237.000, 0.179
237.100, 0.193
237.200, 0.166
237.300, 0.180
237.400, 0.191
237.500, 0.170
237.600, 0.170
237.700, 0.168
237.800, 0.161
237.900, 0.162
238.000, 0.162
238.100, 0.171
238.200, 0.176
238.300, 0.168
238.400, 0.166
238.500, 0.167
238.600, 0.179
238.700, 0.171
238.800, 0.163
238.900, 0.175
239.000, 0.165
239.100, 0.176
239.200, 0.174
239.300, 0.165
239.400, 0.182
239.500, 0.171
239.600, 0.169
239.700, 0.163
239.800, 0.179
239.900, 0.175
240.000, 0.181
240.100, 0.174
240.200, 0.194
240.300, 0.183
240.400, 0.156
240.500, 0.155
240.600, 0.160
240.700, 0.159
240.800, 0.148
240.900, 0.180
241.000, 0.151
241.100, 0.157
241.200, 0.159
241.300, 0.170
241.400, 0.190
241.500, 0.169
241.600, 0.154
241.700, 0.154
241.800, 0.161
241.900, 0.191
242.000, 0.184
242.100, 0.188
242.200, 0.217
242.300, 0.197
242.400, 0.208
242.500, 0.178
242.600, 0.173
242.700, 0.166
242.800, 0.186
242.900, 0.185
243.000, 0.172
243.100, 0.154
243.200, 0.208
243.300, 0.185
243.400, 0.194
243.500, 0.171
243.600, 0.173
243.700, 0.171
243.800, 0.186
243.900, 0.178
244.000, 0.195
244.100, 0.189
244.200, 0.194
244.300, 0.169
244.400, 0.166
244.500, 0.179
244.600, 0.175
244.700, 0.186
244.800, 0.175
244.900, 0.151
245.000, 0.149
245.100, 0.188
245.200, 0.173
245.300, 0.175
245.400, 0.180
245.500, 0.156
245.600, 0.177
245.700, 0.166
245.800, 0.183
245.900, 0.155
246.000, 0.172
246.100, 0.168
246.200, 0.162
246.300, 0.163
246.400, 0.151
246.500, 0.165
246.600, 0.174
246.700, 0.186
246.800, 0.197
246.900, 0.190
247.000, 0.181
247.100, 0.184
247.200, 0.179
247.300, 0.191
247.400, 0.168
247.500, 0.185
247.600, 0.176
247.700, 0.203
247.800, 0.209
247.900, 0.191
248.000, 0.185
248.100, 0.191
248.200, 0.177
248.300, 0.156
248.400, 0.156
248.500, 0.155
248.600, 0.155
248.700, 0.160
248.800, 0.159
248.900, 0.148
249.000, 0.144
249.100, 0.139
249.200, 0.158
249.300, 0.146
249.400, 0.161
249.500, 0.174
249.600, 0.207
249.700, 0.164
249.800, 0.155
249.900, 0.154
250.000, 0.162
250.100, 0.151
250.200, 0.154
250.300, 0.169
250.400, 0.202
250.500, 0.179
250.600, 0.175
250.700, 0.177
250.800, 0.194
250.900, 0.173
251.000, 0.184
251.100, 0.161
251.200, 0.191
251.300, 0.178
251.400, 0.209
251.500, 0.157
251.600, 0.165
251.700, 0.154
251.800, 0.165
251.900, 0.151
252.000, 0.184
252.100, 0.166
252.200, 0.161
252.300, 0.200
252.400, 0.164
252.500, 0.163
252.600, 0.167
252.700, 0.164
252.800, 0.168
252.900, 0.152
253.000, 0.146
253.100, 0.143
253.200, 0.157
253.300, 0.178
253.400, 0.215
253.500, 0.180
253.600, 0.173
253.700, 0.165
253.800, 0.191
253.900, 0.169
254.000, 0.172
254.100, 0.164
254.200, 0.201
254.300, 0.197
254.400, 0.168
254.500, 0.186
254.600, 0.169
254.700, 0.201
254.800, 0.177
254.900, 0.181
255.000, 0.177
255.100, 0.173
255.200, 0.180
255.300, 0.172
255.400, 0.164
255.500, 0.165
255.600, 0.175
255.700, 0.178
255.800, 0.182
255.900, 0.175
256.000, 0.165
256.100, 0.155
256.200, 0.146
256.300, 0.156
256.400, 0.165
256.500, 0.132
256.600, 0.154
256.700, 0.172
256.800, 0.137
256.900, 0.154
257.000, 0.178
257.100, 0.158
257.200, 0.149
257.300, 0.164
257.400, 0.175
257.500, 0.177
257.600, 0.161
257.700, 0.157
257.800, 0.185
257.900, 0.172
258.000, 0.178
258.100, 0.166
258.200, 0.156
258.300, 0.143
258.400, 0.151
258.500, 0.158
258.600, 0.174
258.700, 0.192
258.800, 0.171
258.900, 0.194
259.000, 0.189
259.100, 0.169
259.200, 0.159
259.300, 0.143
259.400, 0.147
259.500, 0.167
259.600, 0.163
259.700, 0.181
259.800, 0.172
259.900, 0.163
260.000, 0.191
260.100, 0.168
260.200, 0.180
260.300, 0.173
260.400, 0.156
260.500, 0.170
260.600, 0.164
260.700, 0.178
260.800, 0.159
260.900, 0.172
261.000, 0.176
261.100, 0.199
261.200, 0.189
261.300, 0.176
261.400, 0.199
261.500, 0.187
261.600, 0.181
261.700, 0.182
261.800, 0.203
261.900, 0.216
262.000, 0.204
262.100, 0.197
262.200, 0.155
262.300, 0.149
262.400, 0.158
262.500, 0.167
262.600, 0.157
262.700, 0.145
262.800, 0.168
262.900, 0.188
263.000, 0.183
263.100, 0.177
263.200, 0.158
263.300, 0.192
263.400, 0.196
263.500, 0.208
263.600, 0.182
263.700, 0.170
263.800, 0.172
263.900, 0.175
264.000, 0.175
264.100, 0.170
264.200, 0.166
264.300, 0.149
264.400, 0.153
264.500, 0.138
264.600, 0.148
264.700, 0.161
264.800, 0.155
264.900, 0.158
265.000, 0.157
265.100, 0.170
265.200, 0.170
265.300, 0.147
265.400, 0.157
265.500, 0.152
265.600, 0.135
265.700, 0.162
265.800, 0.164
265.900, 0.192
266.000, 0.173
266.100, 0.161
266.200, 0.150
266.300, 0.169
266.400, 0.167
266.500, 0.199
266.600, 0.163
266.700, 0.169
266.800, 0.167
266.900, 0.157
267.000, 0.151
267.100, 0.176
267.200, 0.189
267.300, 0.183
267.400, 0.193
267.500, 0.179
267.600, 0.179
267.700, 0.179
267.800, 0.166
267.900, 0.179
268.000, 0.167
268.100, 0.189
268.200, 0.195
268.300, 0.187
268.400, 0.171
268.500, 0.188
268.600, 0.185
268.700, 0.197
268.800, 0.218
268.900, 0.196
269.000, 0.194
269.100, 0.188
269.200, 0.181
269.300, 0.159
269.400, 0.185
269.500, 0.186
269.600, 0.157
269.700, 0.181
269.800, 0.195
269.900, 0.169
270.000, 0.173
270.100, 0.166
270.200, 0.190
270.300, 0.186
270.400, 0.161
270.500, 0.158
270.600, 0.178
270.700, 0.184
270.800, 0.177
270.900, 0.169
271.000, 0.169
271.100, 0.160
271.200, 0.178
271.300, 0.177
271.400, 0.170
271.500, 0.134
271.600, 0.144
271.700, 0.151
271.800, 0.167
271.900, 0.143
272.000, 0.159
272.100, 0.183
272.200, 0.166
272.300, 0.171
272.400, 0.165
272.500, 0.160
272.600, 0.164
272.700, 0.155
272.800, 0.162
272.900, 0.177
273.000, 0.157
273.100, 0.182
273.200, 0.185
273.300, 0.166
273.400, 0.157
273.500, 0.159
273.600, 0.158
273.700, 0.153
273.800, 0.157
273.900, 0.150
274.000, 0.152
274.100, 0.150
274.200, 0.150
274.300, 0.151
274.400, 0.160
274.500, 0.180
274.600, 0.169
274.700, 0.158
274.800, 0.142
274.900, 0.169
275.000, 0.143
275.100, 0.138
275.200, 0.160
275.300, 0.161
275.400, 0.145
275.500, 0.172
275.600, 0.175
275.700, 0.183
275.800, 0.174
275.900, 0.184
276.000, 0.166
276.100, 0.171
276.200, 0.158
276.300, 0.167
276.400, 0.165
276.500, 0.164
276.600, 0.161
276.700, 0.183
276.800, 0.187
276.900, 0.164
277.000, 0.164
277.100, 0.201
277.200, 0.168
277.300, 0.180
277.400, 0.185
277.500, 0.185
277.600, 0.170
277.700, 0.145
277.800, 0.148
277.900, 0.133
278.000, 0.153
278.100, 0.165
278.200, 0.162
278.300, 0.159
278.400, 0.195
278.500, 0.195
278.600, 0.166
278.700, 0.183
278.800, 0.174
278.900, 0.183
279.000, 0.179
279.100, 0.149
279.200, 0.174
279.300, 0.185
279.400, 0.196
279.500, 0.168
279.600, 0.148
279.700, 0.169
279.800, 0.165
279.900, 0.138
280.000, 0.170
280.100, 0.157
280.200, 0.140
280.300, 0.147
280.400, 0.153
280.500, 0.135
280.600, 0.137
280.700, 0.137
280.800, 0.165
280.900, 0.165
281.000, 0.159
281.100, 0.132
281.200, 0.142
281.300, 0.151
281.400, 0.147
281.500, 0.151
281.600, 0.151
281.700, 0.171
281.800, 0.153
281.900, 0.144
282.000, 0.156
282.100, 0.175
282.200, 0.149
282.300, 0.157
282.400, 0.130
282.500, 0.137
282.600, 0.148
282.700, 0.159
282.800, 0.132
282.900, 0.125
283.000, 0.135
283.100, 0.149
283.200, 0.171
283.300, 0.153
283.400, 0.154
283.500, 0.172
283.600, 0.132
283.700, 0.151
283.800, 0.167
283.900, 0.190
284.000, 0.173
284.100, 0.169
284.200, 0.152
284.300, 0.156
284.400, 0.164
284.500, 0.172
284.600, 0.171
284.700, 0.204
284.800, 0.183
284.900, 0.167
285.000, 0.181
285.100, 0.167
285.200, 0.184
285.300, 0.187
285.400, 0.185
285.500, 0.166
285.600, 0.176
285.700, 0.173
285.800, 0.184
285.900, 0.196
286.000, 0.187
286.100, 0.175
286.200, 0.178
286.300, 0.180
286.400, 0.172
286.500, 0.169
286.600, 0.169
286.700, 0.188
286.800, 0.171
286.900, 0.180
287.000, 0.147
287.100, 0.152
287.200, 0.151
287.300, 0.171
287.400, 0.166
287.500, 0.165
287.600, 0.180
287.700, 0.167
287.800, 0.178
287.900, 0.158
288.000, 0.179
288.100, 0.174
288.200, 0.190
288.300, 0.191
288.400, 0.225
288.500, 0.197
288.600, 0.164
288.700, 0.181
288.800, 0.186
288.900, 0.179
289.000, 0.170
289.100, 0.188
289.200, 0.170
289.300, 0.203
289.400, 0.167
289.500, 0.160
289.600, 0.139
289.700, 0.158
289.800, 0.150
289.900, 0.154
290.000, 0.149
290.100, 0.144
290.200, 0.157
290.300, 0.145
290.400, 0.166
290.500, 0.152
290.600, 0.138
290.700, 0.116
290.800, 0.138
290.900, 0.147
291.000, 0.136
291.100, 0.150
291.200, 0.138
291.300, 0.141
291.400, 0.176
291.500, 0.143
291.600, 0.147
291.700, 0.166
291.800, 0.169
291.900, 0.138
292.000, 0.129
292.100, 0.136
292.200, 0.143
292.300, 0.147
292.400, 0.139
292.500, 0.179
292.600, 0.204
292.700, 0.179
292.800, 0.180
292.900, 0.205
293.000, 0.188
293.100, 0.214
293.200, 0.195
293.300, 0.187
293.400, 0.176
293.500, 0.168
293.600, 0.150
293.700, 0.172
293.800, 0.147
293.900, 0.134
294.000, 0.139
294.100, 0.176
294.200, 0.182
294.300, 0.162
294.400, 0.171
294.500, 0.175
294.600, 0.192
294.700, 0.192
294.800, 0.189
294.900, 0.168
295.000, 0.173
295.100, 0.179
295.200, 0.170
295.300, 0.190
295.400, 0.180
295.500, 0.178
295.600, 0.175
295.700, 0.180
295.800, 0.186
295.900, 0.154
296.000, 0.182
296.100, 0.155
296.200, 0.153
296.300, 0.148
296.400, 0.141
296.500, 0.143
296.600, 0.154
296.700, 0.158
296.800, 0.144
296.900, 0.152
297.000, 0.184
297.100, 0.161
297.200, 0.166
297.300, 0.161
297.400, 0.172
297.500, 0.164
297.600, 0.163
297.700, 0.170
297.800, 0.171
297.900, 0.152
298.000, 0.160
298.100, 0.157
298.200, 0.164
298.300, 0.170
298.400, 0.158
298.500, 0.172
298.600, 0.153
298.700, 0.140
298.800, 0.170
298.900, 0.161
299.000, 0.166
299.100, 0.136
299.200, 0.133
299.300, 0.151
299.400, 0.161
299.500, 0.156
299.600, 0.163
299.700, 0.167
299.800, 0.171
299.900, 0.166
300.000, 0.171
300.100, 0.150
300.200, 0.164
300.300, 0.150
300.400, 0.161
300.500, 0.184
300.600, 0.181
300.700, 0.172
300.800, 0.173
300.900, 0.172
301.000, 0.172
301.100, 0.151
301.200, 0.149
301.300, 0.165
301.400, 0.141
301.500, 0.162
301.600, 0.217
301.700, 0.200
301.800, 0.166
301.900, 0.184
302.000, 0.160
302.100, 0.171
302.200, 0.175
302.300, 0.169
302.400, 0.154
302.500, 0.155
302.600, 0.171
302.700, 0.179
302.800, 0.162
302.900, 0.181
303.000, 0.160
303.100, 0.204
303.200, 0.169
303.300, 0.151
303.400, 0.144
303.500, 0.158
303.600, 0.170
303.700, 0.167
303.800, 0.166
303.900, 0.174
304.000, 0.162
304.100, 0.141
304.200, 0.156
304.300, 0.141
304.400, 0.138
304.500, 0.158
304.600, 0.156
304.700, 0.129
304.800, 0.182
304.900, 0.191
305.000, 0.158
305.100, 0.155
305.200, 0.132
305.300, 0.133
305.400, 0.186
305.500, 0.182
305.600, 0.169
305.700, 0.139
305.800, 0.145
305.900, 0.155
306.000, 0.147
306.100, 0.157
306.200, 0.152
306.300, 0.146
306.400, 0.159
306.500, 0.163
306.600, 0.146
306.700, 0.182
306.800, 0.192
306.900, 0.165
307.000, 0.173
307.100, 0.176
307.200, 0.180
307.300, 0.183
307.400, 0.193
307.500, 0.156
307.600, 0.162
307.700, 0.151
307.800, 0.187
307.900, 0.186
308.000, 0.172
308.100, 0.191
308.200, 0.193
308.300, 0.173
308.400, 0.195
308.500, 0.171
308.600, 0.184
308.700, 0.185
308.800, 0.184
308.900, 0.176
309.000, 0.146
309.100, 0.160
309.200, 0.170
309.300, 0.188
309.400, 0.168
309.500, 0.169
309.600, 0.208
309.700, 0.205
309.800, 0.204
309.900, 0.179
310.000, 0.182
310.100, 0.185
310.200, 0.185
310.300, 0.163
310.400, 0.155
310.500, 0.164
310.600, 0.156
310.700, 0.163
310.800, 0.172
310.900, 0.184
311.000, 0.170
311.100, 0.196
311.200, 0.165
311.300, 0.174
311.400, 0.168
311.500, 0.187
311.600, 0.177
311.700, 0.155
311.800, 0.167
311.900, 0.189
312.000, 0.159
312.100, 0.155
312.200, 0.184
312.300, 0.192
312.400, 0.168
312.500, 0.162
312.600, 0.166
312.700, 0.173
312.800, 0.176
312.900, 0.183
313.000, 0.162
313.100, 0.149
313.200, 0.144
313.300, 0.151
313.400, 0.154
313.500, 0.161
313.600, 0.171
313.700, 0.173
313.800, 0.183
313.900, 0.164
314.000, 0.204
314.100, 0.170
314.200, 0.150
314.300, 0.153
314.400, 0.138
314.500, 0.141
314.600, 0.164
314.700, 0.157
314.800, 0.157
314.900, 0.163
315.000, 0.143
315.100, 0.157
315.200, 0.147
315.300, 0.138
315.400, 0.153
315.500, 0.160
315.600, 0.125
315.700, 0.118
315.800, 0.151
315.900, 0.136
316.000, 0.161
316.100, 0.152
316.200, 0.146
316.300, 0.156
316.400, 0.160
316.500, 0.183
316.600, 0.183
316.700, 0.168
316.800, 0.206
316.900, 0.179
317.000, 0.175
317.100, 0.193
317.200, 0.161
317.300, 0.157
317.400, 0.168
317.500, 0.177
317.600, 0.161
317.700, 0.166
317.800, 0.175
317.900, 0.181
318.000, 0.201
318.100, 0.182
318.200, 0.181
318.300, 0.163
318.400, 0.199
318.500, 0.206
318.600, 0.200
318.700, 0.196
318.800, 0.189
318.900, 0.188
319.000, 0.174
319.100, 0.163
319.200, 0.160
319.300, 0.160
319.400, 0.164
319.500, 0.175
319.600, 0.200
319.700, 0.155
319.800, 0.164
319.900, 0.145
320.000, 0.156
320.100, 0.151
320.200, 0.173
320.300, 0.142
320.400, 0.168
320.500, 0.184
320.600, 0.165
320.700, 0.155
320.800, 0.170
320.900, 0.194
321.000, 0.162
321.100, 0.190
321.200, 0.180
321.300, 0.162
321.400, 0.174
321.500, 0.157
321.600, 0.172
321.700, 0.168
321.800, 0.176
321.900, 0.169
322.000, 0.171
322.100, 0.170
322.200, 0.166
322.300, 0.171
322.400, 0.143
322.500, 0.141
322.600, 0.150
322.700, 0.152
322.800, 0.143
322.900, 0.178
323.000, 0.173
323.100, 0.143
323.200, 0.171
323.300, 0.180
323.400, 0.163
323.500, 0.162
323.600, 0.158
323.700, 0.150
323.800, 0.168
323.900, 0.177
324.000, 0.150
324.100, 0.167
324.200, 0.167
324.300, 0.162
324.400, 0.155
324.500, 0.161
324.600, 0.147
324.700, 0.138
324.800, 0.160
324.900, 0.161
325.000, 0.163
325.100, 0.157
325.200, 0.147
325.300, 0.149
325.400, 0.167
325.500, 0.143
325.600, 0.153
325.700, 0.173
325.800, 0.164
325.900, 0.185
326.000, 0.183
326.100, 0.170
326.200, 0.174
326.300, 0.173
326.400, 0.164
326.500, 0.188
326.600, 0.172
326.700, 0.180
326.800, 0.181
326.900, 0.186
327.000, 0.193
327.100, 0.183
327.200, 0.176
327.300, 0.157
327.400, 0.176
327.500, 0.187
327.600, 0.176
327.700, 0.172
327.800, 0.172
327.900, 0.162
328.000, 0.175
328.100, 0.135
328.200, 0.151
328.300, 0.155
328.400, 0.163
328.500, 0.191
328.600, 0.158
328.700, 0.149
328.800, 0.155
328.900, 0.156
329.000, 0.166
329.100, 0.143
329.200, 0.165
329.300, 0.190
329.400, 0.180
329.500, 0.149
329.600, 0.140
329.700, 0.125
329.800, 0.116
329.900, 0.137
330.000, 0.126
330.100, 0.153
330.200, 0.148
330.300, 0.138
330.400, 0.161
330.500, 0.199
330.600, 0.176
330.700, 0.165
330.800, 0.173
330.900, 0.184
331.000, 0.178
331.100, 0.174
331.200, 0.193
331.300, 0.176
331.400, 0.184
331.500, 0.177
331.600, 0.171
331.700, 0.183
331.800, 0.165
331.900, 0.183
332.000, 0.192
332.100, 0.205
332.200, 0.190
332.300, 0.163
332.400, 0.163
332.500, 0.172
332.600, 0.183
332.700, 0.161
332.800, 0.176
332.900, 0.197
333.000, 0.184
333.100, 0.164
333.200, 0.142
333.300, 0.146
333.400, 0.167
333.500, 0.168
333.600, 0.174
333.700, 0.157
333.800, 0.178
333.900, 0.165
334.000, 0.164
334.100, 0.182
334.200, 0.183
334.300, 0.164
334.400, 0.171
334.500, 0.171
334.600, 0.179
334.700, 0.171
334.800, 0.165
334.900, 0.159
335.000, 0.161
335.100, 0.154
335.200, 0.177
335.300, 0.168
335.400, 0.151
335.500, 0.150
335.600, 0.157
335.700, 0.204
335.800, 0.200
335.900, 0.186
336.000, 0.173
336.100, 0.182
336.200, 0.186
336.300, 0.154
336.400, 0.162
336.500, 0.181
336.600, 0.194
336.700, 0.178
336.800, 0.177
336.900, 0.178
337.000, 0.177
337.100, 0.169
337.200, 0.165
337.300, 0.168
337.400, 0.179
337.500, 0.176
337.600, 0.152
337.700, 0.157
337.800, 0.180
337.900, 0.169
338.000, 0.179
338.100, 0.179
338.200, 0.180
338.300, 0.178
338.400, 0.176
338.500, 0.180
338.600, 0.190
338.700, 0.197
338.800, 0.179
338.900, 0.212
339.000, 0.170
339.100, 0.166
339.200, 0.184
339.300, 0.193
339.400, 0.204
339.500, 0.196
339.600, 0.189
339.700, 0.182
339.800, 0.193
339.900, 0.182
340.000, 0.192
340.100, 0.197
340.200, 0.198
340.300, 0.207
340.400, 0.200
340.500, 0.181
340.600, 0.168
340.700, 0.195
340.800, 0.194
340.900, 0.167
341.000, 0.180
341.100, 0.171
341.200, 0.175
341.300, 0.181
341.400, 0.179
341.500, 0.163
341.600, 0.205
341.700, 0.188
341.800, 0.183
341.900, 0.170
342.000, 0.174
342.100, 0.200
342.200, 0.182
342.300, 0.161
342.400, 0.177
342.500, 0.193
342.600, 0.183
342.700, 0.182
342.800, 0.178
342.900, 0.183
343.000, 0.179
343.100, 0.176
343.200, 0.172
343.300, 0.189
343.400, 0.184
343.500, 0.193
343.600, 0.216
343.700, 0.193
343.800, 0.183
343.900, 0.201
344.000, 0.205
344.100, 0.176
344.200, 0.168
344.300, 0.176
344.400, 0.170
344.500, 0.195
344.600, 0.187
344.700, 0.185
344.800, 0.190
344.900, 0.197
345.000, 0.181
345.100, 0.190
345.200, 0.199
345.300, 0.190
345.400, 0.200
345.500, 0.181
345.600, 0.182
345.700, 0.172
345.800, 0.171
345.900, 0.180
346.000, 0.185
346.100, 0.183
346.200, 0.181
346.300, 0.192
346.400, 0.203
346.500, 0.194
346.600, 0.184
346.700, 0.184
346.800, 0.169
346.900, 0.160
347.000, 0.167
347.100, 0.172
347.200, 0.200
347.300, 0.203
347.400, 0.196
347.500, 0.199
347.600, 0.190
347.700, 0.181
347.800, 0.187
347.900, 0.189
348.000, 0.197
348.100, 0.175
348.200, 0.190
348.300, 0.177
348.400, 0.185
348.500, 0.175
348.600, 0.179
348.700, 0.167
348.800, 0.187
348.900, 0.180
349.000, 0.188
349.100, 0.160
349.200, 0.171
349.300, 0.179
349.400, 0.181
349.500, 0.191
349.600, 0.186
349.700, 0.179
349.800, 0.186
349.900, 0.186
350.000, 0.205
350.100, 0.206
350.200, 0.195
350.300, 0.198
350.400, 0.182
350.500, 0.183
350.600, 0.170
350.700, 0.187
350.800, 0.211
350.900, 0.194
351.000, 0.171
351.100, 0.176
351.200, 0.178
351.300, 0.162
351.400, 0.166
351.500, 0.173
351.600, 0.185
351.700, 0.185
351.800, 0.165
351.900, 0.166
352.000, 0.187
352.100, 0.164
352.200, 0.166
352.300, 0.164
352.400, 0.160
352.500, 0.182
352.600, 0.186
352.700, 0.178
352.800, 0.180
352.900, 0.182
353.000, 0.189
353.100, 0.172
353.200, 0.177
353.300, 0.183
353.400, 0.189
353.500, 0.177
353.600, 0.186
353.700, 0.200
353.800, 0.204
353.900, 0.209
354.000, 0.200
354.100, 0.199
354.200, 0.206
354.300, 0.176
354.400, 0.209
354.500, 0.189
354.600, 0.210
354.700, 0.195
354.800, 0.183
354.900, 0.178
355.000, 0.160
355.100, 0.152
355.200, 0.167
355.300, 0.191
355.400, 0.207
355.500, 0.179
355.600, 0.154
355.700, 0.175
355.800, 0.157
355.900, 0.158
356.000, 0.155
356.100, 0.161
356.200, 0.157
356.300, 0.151
356.400, 0.185
356.500, 0.189
356.600, 0.185
356.700, 0.169
356.800, 0.173
356.900, 0.153
357.000, 0.148
357.100, 0.157
357.200, 0.158
357.300, 0.174
357.400, 0.191
357.500, 0.165
357.600, 0.186
357.700, 0.196
357.800, 0.187
357.900, 0.170
358.000, 0.179
358.100, 0.168
358.200, 0.173
358.300, 0.168
358.400, 0.181
358.500, 0.187
358.600, 0.174
358.700, 0.181
358.800, 0.189
358.900, 0.180
359.000, 0.176
359.100, 0.197
359.200, 0.191
359.300, 0.169
359.400, 0.180
359.500, 0.179
359.600, 0.183
359.700, 0.169
359.800, 0.185
359.900, 0.206
360.000, 0.168
360.100, 0.172
360.200, 0.180
360.300, 0.196
360.400, 0.190
360.500, 0.210
360.600, 0.204
360.700, 0.200
360.800, 0.191
360.900, 0.214
361.000, 0.202
361.100, 0.197
361.200, 0.155
361.300, 0.174
361.400, 0.171
361.500, 0.164
361.600, 0.169
361.700, 0.172
361.800, 0.182
361.900, 0.172
362.000, 0.187
362.100, 0.194
362.200, 0.185
362.300, 0.187
362.400, 0.186
362.500, 0.173
362.600, 0.194
362.700, 0.229
362.800, 0.186
362.900, 0.176
363.000, 0.200
363.100, 0.201
363.200, 0.189
363.300, 0.179
363.400, 0.162
363.500, 0.166
363.600, 0.185
363.700, 0.175
363.800, 0.175
363.900, 0.175
364.000, 0.183
364.100, 0.183
364.200, 0.180
364.300, 0.174
364.400, 0.177
364.500, 0.165
364.600, 0.179
364.700, 0.168
364.800, 0.172
364.900, 0.159
365.000, 0.174
365.100, 0.180
365.200, 0.187
365.300, 0.176
365.400, 0.185
365.500, 0.158
365.600, 0.182
365.700, 0.170
365.800, 0.178
365.900, 0.202
366.000, 0.194
366.100, 0.206
366.200, 0.183
366.300, 0.185
366.400, 0.175
366.500, 0.204
366.600, 0.170
366.700, 0.159
366.800, 0.173
366.900, 0.162
367.000, 0.165
367.100, 0.163
367.200, 0.179
367.300, 0.180
367.400, 0.185
367.500, 0.190
367.600, 0.196
367.700, 0.177
367.800, 0.186
367.900, 0.165
368.000, 0.180
368.100, 0.190
368.200, 0.178
368.300, 0.183
368.400, 0.183
368.500, 0.184
368.600, 0.176
368.700, 0.182
368.800, 0.202
368.900, 0.195
369.000, 0.173
369.100, 0.194
369.200, 0.192
369.300, 0.171
369.400, 0.185
369.500, 0.179
369.600, 0.186
369.700, 0.184
369.800, 0.184
369.900, 0.170
370.000, 0.162
370.100, 0.169
370.200, 0.155
370.300, 0.173
370.400, 0.164
370.500, 0.149
370.600, 0.166
370.700, 0.159
370.800, 0.180
370.900, 0.154
371.000, 0.138
371.100, 0.164
371.200, 0.165
371.300, 0.168
371.400, 0.165
371.500, 0.167
371.600, 0.192
371.700, 0.147
371.800, 0.167
371.900, 0.176
372.000, 0.206
372.100, 0.190
372.200, 0.193
372.300, 0.181
372.400, 0.204
372.500, 0.203
372.600, 0.207
372.700, 0.191
372.800, 0.182
372.900, 0.182
373.000, 0.190
373.100, 0.210
373.200, 0.207
373.300, 0.179
373.400, 0.201
373.500, 0.192
373.600, 0.163
373.700, 0.159
373.800, 0.147
373.900, 0.174
374.000, 0.151
374.100, 0.176
374.200, 0.145
374.300, 0.179
374.400, 0.158
374.500, 0.160
374.600, 0.158
374.700, 0.188
374.800, 0.174
374.900, 0.197
375.000, 0.197
375.100, 0.201
375.200, 0.202
375.300, 0.192
375.400, 0.190
375.500, 0.202
375.600, 0.211
375.700, 0.193
375.800, 0.219
375.900, 0.213
376.000, 0.202
376.100, 0.202
376.200, 0.192
376.300, 0.189
376.400, 0.190
376.500, 0.202
376.600, 0.215
376.700, 0.226
376.800, 0.230
376.900, 0.204
377.000, 0.211
377.100, 0.220
377.200, 0.204
377.300, 0.204
377.400, 0.182
377.500, 0.178
377.600, 0.178
377.700, 0.192
377.800, 0.194
377.900, 0.183
378.000, 0.207
378.100, 0.166
378.200, 0.168
378.300, 0.198
378.400, 0.169
378.500, 0.160
378.600, 0.170
378.700, 0.160
378.800, 0.164
378.900, 0.173
379.000, 0.200
379.100, 0.186
379.200, 0.184
379.300, 0.180
379.400, 0.172
379.500, 0.171
379.600, 0.162
379.700, 0.172
379.800, 0.164
379.900, 0.166
380.000, 0.155
380.100, 0.171
380.200, 0.169
380.300, 0.176
380.400, 0.196
380.500, 0.175
380.600, 0.174
380.700, 0.184
380.800, 0.172
380.900, 0.171
381.000, 0.140
381.100, 0.160
381.200, 0.163
381.300, 0.175
381.400, 0.170
381.500, 0.155
381.600, 0.155
381.700, 0.153
381.800, 0.138
381.900, 0.174
382.000, 0.161
382.100, 0.198
382.200, 0.179
382.300, 0.170
382.400, 0.156
382.500, 0.168
382.600, 0.157
382.700, 0.143
382.800, 0.147
382.900, 0.146
383.000, 0.147
383.100, 0.158
383.200, 0.175
383.300, 0.181
383.400, 0.182
383.500, 0.196
383.600, 0.163
383.700, 0.196
383.800, 0.170
383.900, 0.182
384.000, 0.164
384.100, 0.166
384.200, 0.155
384.300, 0.199
384.400, 0.191
384.500, 0.181
384.600, 0.194
384.700, 0.209
384.800, 0.191
384.900, 0.193
385.000, 0.185
385.100, 0.188
385.200, 0.174
385.300, 0.189
385.400, 0.195
385.500, 0.197
385.600, 0.203
385.700, 0.198
385.800, 0.186
385.900, 0.195
386.000, 0.214
386.100, 0.218
386.200, 0.232
386.300, 0.202
386.400, 0.223
386.500, 0.213
386.600, 0.211
386.700, 0.204
386.800, 0.225
386.900, 0.208
387.000, 0.212
387.100, 0.192
387.200, 0.212
387.300, 0.192
387.400, 0.211
387.500, 0.211
387.600, 0.200
387.700, 0.196
387.800, 0.212
387.900, 0.210
388.000, 0.201
388.100, 0.189
388.200, 0.188
388.300, 0.174
388.400, 0.179
388.500, 0.191
388.600, 0.157
388.700, 0.171
388.800, 0.179
388.900, 0.179
389.000, 0.184
389.100, 0.193
389.200, 0.177
389.300, 0.177
389.400, 0.181
389.500, 0.196
389.600, 0.189
389.700, 0.218
389.800, 0.198
389.900, 0.198
390.000, 0.191
390.100, 0.191
390.200, 0.182
390.300, 0.174
390.400, 0.197
390.500, 0.193
390.600, 0.193
390.700, 0.169
390.800, 0.191
390.900, 0.183
391.000, 0.187
391.100, 0.179
391.200, 0.185
391.300, 0.202
391.400, 0.205
391.500, 0.196
391.600, 0.191
391.700, 0.190
391.800, 0.204
391.900, 0.187
392.000, 0.200
392.100, 0.195
392.200, 0.203
392.300, 0.195
392.400, 0.189
392.500, 0.194
392.600, 0.198
392.700, 0.207
392.800, 0.196
392.900, 0.172
393.000, 0.187
393.100, 0.176
393.200, 0.189
393.300, 0.188
393.400, 0.181
393.500, 0.205
393.600, 0.198
393.700, 0.199
393.800, 0.180
393.900, 0.190
394.000, 0.219
394.100, 0.194
394.200, 0.214
394.300, 0.179
394.400, 0.185
394.500, 0.183
394.600, 0.171
394.700, 0.167
394.800, 0.171
394.900, 0.179
395.000, 0.197
395.100, 0.195
395.200, 0.195
395.300, 0.189
395.400, 0.196
395.500, 0.194
395.600, 0.205
395.700, 0.192
395.800, 0.198
395.900, 0.181
396.000, 0.204
396.100, 0.218
396.200, 0.176
396.300, 0.174
396.400, 0.212
396.500, 0.193
396.600, 0.198
396.700, 0.202
396.800, 0.165
396.900, 0.190
397.000, 0.181
397.100, 0.209
397.200, 0.186
397.300, 0.186
397.400, 0.180
397.500, 0.193
397.600, 0.163
397.700, 0.165
397.800, 0.171
397.900, 0.189
398.000, 0.178
398.100, 0.170
398.200, 0.180
398.300, 0.212
398.400, 0.223
398.500, 0.169
398.600, 0.179
398.700, 0.173
398.800, 0.189
398.900, 0.174
399.000, 0.182
399.100, 0.171
399.200, 0.182
399.300, 0.180
399.400, 0.194
399.500, 0.177
399.600, 0.176
399.700, 0.185
399.800, 0.188
399.900, 0.171
400.000, 0.169
400.100, 0.184
400.200, 0.184
400.300, 0.196
400.400, 0.189
400.500, 0.184
400.600, 0.196
400.700, 0.198
400.800, 0.190
400.900, 0.190
401.000, 0.193
401.100, 0.186
401.200, 0.177
401.300, 0.189
401.400, 0.180
401.500, 0.178
401.600, 0.193
401.700, 0.190
401.800, 0.178
401.900, 0.183
402.000, 0.198
402.100, 0.176
402.200, 0.181
402.300, 0.185
402.400, 0.185
402.500, 0.187
402.600, 0.181
402.700, 0.189
402.800, 0.172
402.900, 0.170
403.000, 0.197
403.100, 0.196
403.200, 0.196
403.300, 0.203
403.400, 0.193
403.500, 0.197
403.600, 0.207
403.700, 0.202
403.800, 0.174
403.900, 0.188
404.000, 0.203
404.100, 0.191
404.200, 0.195
404.300, 0.175
404.400, 0.185
404.500, 0.203
404.600, 0.212
404.700, 0.201
404.800, 0.193
404.900, 0.208
405.000, 0.211
405.100, 0.213
405.200, 0.207
405.300, 0.194
405.400, 0.205
405.500, 0.189
405.600, 0.202
405.700, 0.188
405.800, 0.213
405.900, 0.205
406.000, 0.182
406.100, 0.163
406.200, 0.208
406.300, 0.210
406.400, 0.206
406.500, 0.192
406.600, 0.179
406.700, 0.160
406.800, 0.159
406.900, 0.176
407.000, 0.163
407.100, 0.170
407.200, 0.194
407.300, 0.173
407.400, 0.168
407.500, 0.183
407.600, 0.200
407.700, 0.198
407.800, 0.174
407.900, 0.183
408.000, 0.175
408.100, 0.170
408.200, 0.160
408.300, 0.160
408.400, 0.178
408.500, 0.189
408.600, 0.212
408.700, 0.191
408.800, 0.174
408.900, 0.176
409.000, 0.182
409.100, 0.174
409.200, 0.179
409.300, 0.185
409.400, 0.173
409.500, 0.171
409.600, 0.174
409.700, 0.193
409.800, 0.182
409.900, 0.185
410.000, 0.182
410.100, 0.163
410.200, 0.157
410.300, 0.167
410.400, 0.173
410.500, 0.165
410.600, 0.151
410.700, 0.161
410.800, 0.176
410.900, 0.173
411.000, 0.172
411.100, 0.172
411.200, 0.172
411.300, 0.187
411.400, 0.195
411.500, 0.191
411.600, 0.207
411.700, 0.205
411.800, 0.212
411.900, 0.220
412.000, 0.197
412.100, 0.178
412.200, 0.182
412.300, 0.200
412.400, 0.185
412.500, 0.199
412.600, 0.179
412.700, 0.187
412.800, 0.168
412.900, 0.190
413.000, 0.187
413.100, 0.211
413.200, 0.208
413.300, 0.197
413.400, 0.189
413.500, 0.192
413.600, 0.194
413.700, 0.197
413.800, 0.183
413.900, 0.213
414.000, 0.197
414.100, 0.201
414.200, 0.206
414.300, 0.197
414.400, 0.159
414.500, 0.172
414.600, 0.178
414.700, 0.187
414.800, 0.183
414.900, 0.173
415.000, 0.155
415.100, 0.162
415.200, 0.152
415.300, 0.147
415.400, 0.165
415.500, 0.166
415.600, 0.169
415.700, 0.156
415.800, 0.182
415.900, 0.183
416.000, 0.172
416.100, 0.157
416.200, 0.169
416.300, 0.158
416.400, 0.155
416.500, 0.165
416.600, 0.175
416.700, 0.165
416.800, 0.169
416.900, 0.157
417.000, 0.142
417.100, 0.131
417.200, 0.149
417.300, 0.171
417.400, 0.159
417.500, 0.180
417.600, 0.199
417.700, 0.161
417.800, 0.140
417.900, 0.160
418.000, 0.185
418.100, 0.163
418.200, 0.142
418.300, 0.162
418.400, 0.152
418.500, 0.142
418.600, 0.146
418.700, 0.147
418.800, 0.142
418.900, 0.156
419.000, 0.151
419.100, 0.176
419.200, 0.162
419.300, 0.179
419.400, 0.163
419.500, 0.157
419.600, 0.170
419.700, 0.181
419.800, 0.174
419.900, 0.176
420.000, 0.162
420.100, 0.150
420.200, 0.159
420.300, 0.163
420.400, 0.164
420.500, 0.184
420.600, 0.179
420.700, 0.162
420.800, 0.161
420.900, 0.145
421.000, 0.167
421.100, 0.164
421.200, 0.159
421.300, 0.151
421.400, 0.156
421.500, 0.148
421.600, 0.174
421.700, 0.172
421.800, 0.180
421.900, 0.156
422.000, 0.161
422.100, 0.166
422.200, 0.153
422.300, 0.166
422.400, 0.155
422.500, 0.152
422.600, 0.158
422.700, 0.176
422.800, 0.177
422.900, 0.190
423.000, 0.185
423.100, 0.167
423.200, 0.153
423.300, 0.163
423.400, 0.176
423.500, 0.186
423.600, 0.154
423.700, 0.183
423.800, 0.173
423.900, 0.150
424.000, 0.165
424.100, 0.167
424.200, 0.159
424.300, 0.168
424.400, 0.184
424.500, 0.169
424.600, 0.160
424.700, 0.175
424.800, 0.164
424.900, 0.157
425.000, 0.153
425.100, 0.170
425.200, 0.165
425.300, 0.167
425.400, 0.154
425.500, 0.166
425.600, 0.176
425.700, 0.171
425.800, 0.180
425.900, 0.170
426.000, 0.160
426.100, 0.187
426.200, 0.172
426.300, 0.155
426.400, 0.165
426.500, 0.166
426.600, 0.162
426.700, 0.153
426.800, 0.150
426.900, 0.149
427.000, 0.153
427.100, 0.160
427.200, 0.150
427.300, 0.154
427.400, 0.147
427.500, 0.165
427.600, 0.164
427.700, 0.175
427.800, 0.193
427.900, 0.168
428.000, 0.181
428.100, 0.185
428.200, 0.183
428.300, 0.192
428.400, 0.188
428.500, 0.191
428.600, 0.178
428.700, 0.171
428.800, 0.183
428.900, 0.192
429.000, 0.196
429.100, 0.187
429.200, 0.202
429.300, 0.178
429.400, 0.181
429.500, 0.196
429.600, 0.192
429.700, 0.175
429.800, 0.210
429.900, 0.175
430.000, 0.185
430.100, 0.195
430.200, 0.183
430.300, 0.191
430.400, 0.166
430.500, 0.156
430.600, 0.163
430.700, 0.187
430.800, 0.171
430.900, 0.186
431.000, 0.190
431.100, 0.196
431.200, 0.163
431.300, 0.165
431.400, 0.150
431.500, 0.153
431.600, 0.166
431.700, 0.192
431.800, 0.167
431.900, 0.158
432.000, 0.165
432.100, 0.178
432.200, 0.188
432.300, 0.195
432.400, 0.190
432.500, 0.177
432.600, 0.193
432.700, 0.178
432.800, 0.174
432.900, 0.171
433.000, 0.184
433.100, 0.165
433.200, 0.213
433.300, 0.174
433.400, 0.182
433.500, 0.169
433.600, 0.183
433.700, 0.192
433.800, 0.184
433.900, 0.157
434.000, 0.190
434.100, 0.181
434.200, 0.192
434.300, 0.177
434.400, 0.175
434.500, 0.182
434.600, 0.165
434.700, 0.172
434.800, 0.189
434.900, 0.177
435.000, 0.167
435.100, 0.174
435.200, 0.186
435.300, 0.154
435.400, 0.158
435.500, 0.165
435.600, 0.162
435.700, 0.157
435.800, 0.175
435.900, 0.171
436.000, 0.180
436.100, 0.170
436.200, 0.170
436.300, 0.189
436.400, 0.180
436.500, 0.170
436.600, 0.175
436.700, 0.162
436.800, 0.202
436.900, 0.177
437.000, 0.187
437.100, 0.168
437.200, 0.175
437.300, 0.163
437.400, 0.161
437.500, 0.151
437.600, 0.148
437.700, 0.158
437.800, 0.163
437.900, 0.148
438.000, 0.169
438.100, 0.166
438.200, 0.166
438.300, 0.155
438.400, 0.164
438.500, 0.157
438.600, 0.144
438.700, 0.146
438.800, 0.150
438.900, 0.139
439.000, 0.147
439.100, 0.145
439.200, 0.146
439.300, 0.169
439.400, 0.150
439.500, 0.158
439.600, 0.167
439.700, 0.174
439.800, 0.170
439.900, 0.182
440.000, 0.183
440.100, 0.195
440.200, 0.158
440.300, 0.172
440.400, 0.166
440.500, 0.176
440.600, 0.173
440.700, 0.159
440.800, 0.162
440.900, 0.154
441.000, 0.171
441.100, 0.187
441.200, 0.207
441.300, 0.188
441.400, 0.204
441.500, 0.184
441.600, 0.163
441.700, 0.173
441.800, 0.182
441.900, 0.164
442.000, 0.172
442.100, 0.170
442.200, 0.164
442.300, 0.166
442.400, 0.159
442.500, 0.181
442.600, 0.193
442.700, 0.190
442.800, 0.180
442.900, 0.181
443.000, 0.167
443.100, 0.179
443.200, 0.172
443.300, 0.185
443.400, 0.162
443.500, 0.154
443.600, 0.151
443.700, 0.184
443.800, 0.175
443.900, 0.171
444.000, 0.149
444.100, 0.159
444.200, 0.154
444.300, 0.183
444.400, 0.174
444.500, 0.185
444.600, 0.180
444.700, 0.172
444.800, 0.181
444.900, 0.191
445.000, 0.178
445.100, 0.184
445.200, 0.188
445.300, 0.186
445.400, 0.195
445.500, 0.202
445.600, 0.200
445.700, 0.184
445.800, 0.193
445.900, 0.178
446.000, 0.175
446.100, 0.195
446.200, 0.191
446.300, 0.189
446.400, 0.186
446.500, 0.196
446.600, 0.200
446.700, 0.213
446.800, 0.181
446.900, 0.167
447.000, 0.164
447.100, 0.185
447.200, 0.177
447.300, 0.208
447.400, 0.232
447.500, 0.223
447.600, 0.198
447.700, 0.182
447.800, 0.213
447.900, 0.207
448.000, 0.199
448.100, 0.200
448.200, 0.185
448.300, 0.196
448.400, 0.194
448.500, 0.191
448.600, 0.190
448.700, 0.157
448.800, 0.196
448.900, 0.183
449.000, 0.186
449.100, 0.201
449.200, 0.188
449.300, 0.187
449.400, 0.193
449.500, 0.180
449.600, 0.194
449.700, 0.205
449.800, 0.183
449.900, 0.208
450.000, 0.199
450.100, 0.165
450.200, 0.164
450.300, 0.177
450.400, 0.197
450.500, 0.174
450.600, 0.182
450.700, 0.173
450.800, 0.188
450.900, 0.178
451.000, 0.184
451.100, 0.197
451.200, 0.170
451.300, 0.184
451.400, 0.207
451.500, 0.196
451.600, 0.212
451.700, 0.188
451.800, 0.198
451.900, 0.186
452.000, 0.178
452.100, 0.177
452.200, 0.191
452.300, 0.192
452.400, 0.195
452.500, 0.190
452.600, 0.192
452.700, 0.193
452.800, 0.182
452.900, 0.175
453.000, 0.192
453.100, 0.184
453.200, 0.181
453.300, 0.184
453.400, 0.185
453.500, 0.175
453.600, 0.189
453.700, 0.150
453.800, 0.175
453.900, 0.188
454.000, 0.188
454.100, 0.190
454.200, 0.183
454.300, 0.187
454.400, 0.188
454.500, 0.209
454.600, 0.205
454.700, 0.208
454.800, 0.198
454.900, 0.224
455.000, 0.189
455.100, 0.177
455.200, 0.208
455.300, 0.194
455.400, 0.189
455.500, 0.186
455.600, 0.177
455.700, 0.184
455.800, 0.195
455.900, 0.192
456.000, 0.195
456.100, 0.185
456.200, 0.199
456.300, 0.194
456.400, 0.211
456.500, 0.182
456.600, 0.194
456.700, 0.204
456.800, 0.205
456.900, 0.181
457.000, 0.169
457.100, 0.188
457.200, 0.180
457.300, 0.186
457.400, 0.191
457.500, 0.212
457.600, 0.203
457.700, 0.197
457.800, 0.192
457.900, 0.207
458.000, 0.255
458.100, 0.225
458.200, 0.194
458.300, 0.198
458.400, 0.192
458.500, 0.206
458.600, 0.207
458.700, 0.199
458.800, 0.191
458.900, 0.200
459.000, 0.194
459.100, 0.219
459.200, 0.194
459.300, 0.182
459.400, 0.199
459.500, 0.187
459.600, 0.202
459.700, 0.206
459.800, 0.183
459.900, 0.177
460.000, 0.214
460.100, 0.210
460.200, 0.208
460.300, 0.205
460.400, 0.214
460.500, 0.197
460.600, 0.195
460.700, 0.223
460.800, 0.203
460.900, 0.181
461.000, 0.183
461.100, 0.208
461.200, 0.173
461.300, 0.188
461.400, 0.184
461.500, 0.200
461.600, 0.199
461.700, 0.198
461.800, 0.182
461.900, 0.206
462.000, 0.189
462.100, 0.209
462.200, 0.175
462.300, 0.184
462.400, 0.182
462.500, 0.192
462.600, 0.215
462.700, 0.193
462.800, 0.198
462.900, 0.190
463.000, 0.203
463.100, 0.218
463.200, 0.216
463.300, 0.184
463.400, 0.166
463.500, 0.194
463.600, 0.206
463.700, 0.200
463.800, 0.188
463.900, 0.199
464.000, 0.172
464.100, 0.188
464.200, 0.187
464.300, 0.185
464.400, 0.208
464.500, 0.196
464.600, 0.188
464.700, 0.193
464.800, 0.195
464.900, 0.178
465.000, 0.182
465.100, 0.178
465.200, 0.208
465.300, 0.179
465.400, 0.183
465.500, 0.181
465.600, 0.185
465.700, 0.188
465.800, 0.181
465.900, 0.180
466.000, 0.179
466.100, 0.191
466.200, 0.166
466.300, 0.171
466.400, 0.170
466.500, 0.162
466.600, 0.169
466.700, 0.172
466.800, 0.166
466.900, 0.173
467.000, 0.175
467.100, 0.171
467.200, 0.177
467.300, 0.164
467.400, 0.182
467.500, 0.188
467.600, 0.168
467.700, 0.179
467.800, 0.174
467.900, 0.172
468.000, 0.163
468.100, 0.171
468.200, 0.172
468.300, 0.189
468.400, 0.201
468.500, 0.187
468.600, 0.198
468.700, 0.189
468.800, 0.202
468.900, 0.193
469.000, 0.194
469.100, 0.181
469.200, 0.201
469.300, 0.181
469.400, 0.200
469.500, 0.178
469.600, 0.189
469.700, 0.214
469.800, 0.191
469.900, 0.186
470.000, 0.199
470.100, 0.187
470.200, 0.207
470.300, 0.194
470.400, 0.193
470.500, 0.208
470.600, 0.191
470.700, 0.183
470.800, 0.181
470.900, 0.183
471.000, 0.185
471.100, 0.181
471.200, 0.175
471.300, 0.198
471.400, 0.187
471.500, 0.200
471.600, 0.194
471.700, 0.186
471.800, 0.195
471.900, 0.170
472.000, 0.189
472.100, 0.168
472.200, 0.155
472.300, 0.170
472.400, 0.172
472.500, 0.170
472.600, 0.181
472.700, 0.187
472.800, 0.193
472.900, 0.197
473.000, 0.195
473.100, 0.183
473.200, 0.153
473.300, 0.173
473.400, 0.162
473.500, 0.188
473.600, 0.187
473.700, 0.173
473.800, 0.186
473.900, 0.197
474.000, 0.193
474.100, 0.203
474.200, 0.186
474.300, 0.204
474.400, 0.183
474.500, 0.186
474.600, 0.167
474.700, 0.171
474.800, 0.213
474.900, 0.187
475.000, 0.205
475.100, 0.178
475.200, 0.175
475.300, 0.181
475.400, 0.179
475.500, 0.199
475.600, 0.195
475.700, 0.202
475.800, 0.191
475.900, 0.173
476.000, 0.182
476.100, 0.168
476.200, 0.160
476.300, 0.175
476.400, 0.196
476.500, 0.190
476.600, 0.195
476.700, 0.185
476.800, 0.179
476.900, 0.187
477.000, 0.164
477.100, 0.180
477.200, 0.183
477.300, 0.190
477.400, 0.170
477.500, 0.185
477.600, 0.158
477.700, 0.168
477.800, 0.174
477.900, 0.183
478.000, 0.190
478.100, 0.184
478.200, 0.196
478.300, 0.194
478.400, 0.204
478.500, 0.193
478.600, 0.192
478.700, 0.209
478.800, 0.194
478.900, 0.197
479.000, 0.217
479.100, 0.204
479.200, 0.192
479.300, 0.196
479.400, 0.197
479.500, 0.174
479.600, 0.185
479.700, 0.186
479.800, 0.193
479.900, 0.189
480.000, 0.176
480.100, 0.194
480.200, 0.185
480.300, 0.180
480.400, 0.173
480.500, 0.166
480.600, 0.172
480.700, 0.163
480.800, 0.166
480.900, 0.184
481.000, 0.185
481.100, 0.185
481.200, 0.189
481.300, 0.181
481.400, 0.194
481.500, 0.193
481.600, 0.191
481.700, 0.168
481.800, 0.189
481.900, 0.157
482.000, 0.165
482.100, 0.162
482.200, 0.181
482.300, 0.156
482.400, 0.192
482.500, 0.190
482.600, 0.169
482.700, 0.198
482.800, 0.188
482.900, 0.177
483.000, 0.185
483.100, 0.190
483.200, 0.190
483.300, 0.192
483.400, 0.189
483.500, 0.180
483.600, 0.185
483.700, 0.188
483.800, 0.196
483.900, 0.161
484.000, 0.169
484.100, 0.186
484.200, 0.166
484.300, 0.212
484.400, 0.189
484.500, 0.185
484.600, 0.178
484.700, 0.204
484.800, 0.192
484.900, 0.212
485.000, 0.182
485.100, 0.208
485.200, 0.206
485.300, 0.218
485.400, 0.187
485.500, 0.210
485.600, 0.203
485.700, 0.244
485.800, 0.233
485.900, 0.202
486.000, 0.210
486.100, 0.211
486.200, 0.226
486.300, 0.193
486.400, 0.198
486.500, 0.206
486.600, 0.198
486.700, 0.197
486.800, 0.189
486.900, 0.168
487.000, 0.187
487.100, 0.211
487.200, 0.212
487.300, 0.205
487.400, 0.191
487.500, 0.169
487.600, 0.176
487.700, 0.186
487.800, 0.193
487.900, 0.178
488.000, 0.159
488.100, 0.178
488.200, 0.180
488.300, 0.173
488.400, 0.177
488.500, 0.172
488.600, 0.156
488.700, 0.172
488.800, 0.167
488.900, 0.175
489.000, 0.159
489.100, 0.149
489.200, 0.149
489.300, 0.155
489.400, 0.156
489.500, 0.163
489.600, 0.185
489.700, 0.162
489.800, 0.166
489.900, 0.160
490.000, 0.180
490.100, 0.175
490.200, 0.169
490.300, 0.157
490.400, 0.160
490.500, 0.177
490.600, 0.169
490.700, 0.152
490.800, 0.176
490.900, 0.167
491.000, 0.182
491.100, 0.179
491.200, 0.184
491.300, 0.183
491.400, 0.198
491.500, 0.174
491.600, 0.202
491.700, 0.193
491.800, 0.194
491.900, 0.192
492.000, 0.199
492.100, 0.176
492.200, 0.173
492.300, 0.179
492.400, 0.194
492.500, 0.196
492.600, 0.205
492.700, 0.198
492.800, 0.195
492.900, 0.195
493.000, 0.201
493.100, 0.208
493.200, 0.217
493.300, 0.181
493.400, 0.198
493.500, 0.186
493.600, 0.182
493.700, 0.207
493.800, 0.187
493.900, 0.210
494.000, 0.182
494.100, 0.192
494.200, 0.206
494.300, 0.213
494.400, 0.214
494.500, 0.214
494.600, 0.210
494.700, 0.214
494.800, 0.202
494.900, 0.208
495.000, 0.235
495.100, 0.215
495.200, 0.204
495.300, 0.215
495.400, 0.231
495.500, 0.201
495.600, 0.193
495.700, 0.207
495.800, 0.209
495.900, 0.199
496.000, 0.211
496.100, 0.207
496.200, 0.195
496.300, 0.179
496.400, 0.195
496.500, 0.201
496.600, 0.187
496.700, 0.189
496.800, 0.179
496.900, 0.186
497.000, 0.193
497.100, 0.183
497.200, 0.169
497.300, 0.183
497.400, 0.169
497.500, 0.184
497.600, 0.180
497.700, 0.161
497.800, 0.181
497.900, 0.189
498.000, 0.180
498.100, 0.176
498.200, 0.177
498.300, 0.157
498.400, 0.177
498.500, 0.195
498.600, 0.173
498.700, 0.192
498.800, 0.186
498.900, 0.169
499.000, 0.174
499.100, 0.196
499.200, 0.192
499.300, 0.183
499.400, 0.190
499.500, 0.187
499.600, 0.192
499.700, 0.196
499.800, 0.206
499.900, 0.179
500.000, 0.147
500.100, 0.162
500.200, 0.165
500.300, 0.177
500.400, 0.172
500.500, 0.170
500.600, 0.172
500.700, 0.177
500.800, 0.171
500.900, 0.181
501.000, 0.184
501.100, 0.190
501.200, 0.179
501.300, 0.178
501.400, 0.174
501.500, 0.166
501.600, 0.190
501.700, 0.196
501.800, 0.184
501.900, 0.189
502.000, 0.178
502.100, 0.171
502.200, 0.178
502.300, 0.200
502.400, 0.181
502.500, 0.181
502.600, 0.191
502.700, 0.165
502.800, 0.187
502.900, 0.180
503.000, 0.174
503.100, 0.174
503.200, 0.188
503.300, 0.172
503.400, 0.181
503.500, 0.173
503.600, 0.179
503.700, 0.194
503.800, 0.193
503.900, 0.184
504.000, 0.175
504.100, 0.186
504.200, 0.169
504.300, 0.187
504.400, 0.178
504.500, 0.177
504.600, 0.163
504.700, 0.178
504.800, 0.176
504.900, 0.193
505.000, 0.180
505.100, 0.204
505.200, 0.174
505.300, 0.193
505.400, 0.223
505.500, 0.192
505.600, 0.205
505.700, 0.192
505.800, 0.179
505.900, 0.191
506.000, 0.181
506.100, 0.187
506.200, 0.196
506.300, 0.198
506.400, 0.195
506.500, 0.186
506.600, 0.195
506.700, 0.178
506.800, 0.205
506.900, 0.209
507.000, 0.200
507.100, 0.172
507.200, 0.195
507.300, 0.180
507.400, 0.169
507.500, 0.184
507.600, 0.201
507.700, 0.189
507.800, 0.197
507.900, 0.184
508.000, 0.195
508.100, 0.175
508.200, 0.159
508.300, 0.170
508.400, 0.167
508.500, 0.182
508.600, 0.179
508.700, 0.193
508.800, 0.186
508.900, 0.219
509.000, 0.216
509.100, 0.187
509.200, 0.196
509.300, 0.211
509.400, 0.197
509.500, 0.188
509.600, 0.251
509.700, 0.193
509.800, 0.205
509.900, 0.197
510.000, 0.201
510.100, 0.172
510.200, 0.178
510.300, 0.180
510.400, 0.178
510.500, 0.202
510.600, 0.176
510.700, 0.189
510.800, 0.175
510.900, 0.206
511.000, 0.194
511.100, 0.170
511.200, 0.200
511.300, 0.188
511.400, 0.183
511.500, 0.167
511.600, 0.162
511.700, 0.182
511.800, 0.175
511.900, 0.177
512.000, 0.196
512.100, 0.203
512.200, 0.201
512.300, 0.188
512.400, 0.179
512.500, 0.174
512.600, 0.169
512.700, 0.159
512.800, 0.185
512.900, 0.177
513.000, 0.167
513.100, 0.179
513.200, 0.175
513.300, 0.175
513.400, 0.173
513.500, 0.184
513.600, 0.204
513.700, 0.209
513.800, 0.190
513.900, 0.184
514.000, 0.163
514.100, 0.209
514.200, 0.194
514.300, 0.190
514.400, 0.183
514.500, 0.194
514.600, 0.202
514.700, 0.197
514.800, 0.182
514.900, 0.178
515.000, 0.171
515.100, 0.178
515.200, 0.202
515.300, 0.180
515.400, 0.192
515.500, 0.200
515.600, 0.228
515.700, 0.204
515.800, 0.189
515.900, 0.212
516.000, 0.183
516.100, 0.162
516.200, 0.188
516.300, 0.215
516.400, 0.201
516.500, 0.187
516.600, 0.186
516.700, 0.181
516.800, 0.161
516.900, 0.164
517.000, 0.164
517.100, 0.197
517.200, 0.183
517.300, 0.167
517.400, 0.168
517.500, 0.167
517.600, 0.163
517.700, 0.178
517.800, 0.159
517.900, 0.161
518.000, 0.191
518.100, 0.192
518.200, 0.185
518.300, 0.166
518.400, 0.176
518.500, 0.179
518.600, 0.177
518.700, 0.175
518.800, 0.178
518.900, 0.172
519.000, 0.194
519.100, 0.193
519.200, 0.172
519.300, 0.173
519.400, 0.165
519.500, 0.183
519.600, 0.168
519.700, 0.167
519.800, 0.159
519.900, 0.162
520.000, 0.164
520.100, 0.178
520.200, 0.183
520.300, 0.183
520.400, 0.188
520.500, 0.183
520.600, 0.193
520.700, 0.189
520.800, 0.172
520.900, 0.192
521.000, 0.193
521.100, 0.174
521.200, 0.188
521.300, 0.186
521.400, 0.185
521.500, 0.194
521.600, 0.192
521.700, 0.176
521.800, 0.188
521.900, 0.184
522.000, 0.197
522.100, 0.208
522.200, 0.206
522.300, 0.194
522.400, 0.207
522.500, 0.205
522.600, 0.201
522.700, 0.198
522.800, 0.231
522.900, 0.219
523.000, 0.230
523.100, 0.221
523.200, 0.228
523.300, 0.235
523.400, 0.222
523.500, 0.240
523.600, 0.240
523.700, 0.240
523.800, 0.236
523.900, 0.230
524.000, 0.227
524.100, 0.193
524.200, 0.197
524.300, 0.201
524.400, 0.199
524.500, 0.208
524.600, 0.231
524.700, 0.246
524.800, 0.239
524.900, 0.226
525.000, 0.228
525.100, 0.202
525.200, 0.214
525.300, 0.208
525.400, 0.191
525.500, 0.200
525.600, 0.206
525.700, 0.219
525.800, 0.226
525.900, 0.209
526.000, 0.209
526.100, 0.239
526.200, 0.242
526.300, 0.230
526.400, 0.220
526.500, 0.216
526.600, 0.243
526.700, 0.245
526.800, 0.209
526.900, 0.214
527.000, 0.241
527.100, 0.234
527.200, 0.229
527.300, 0.234
527.400, 0.254
527.500, 0.253
527.600, 0.266
527.700, 0.273
527.800, 0.266
527.900, 0.260
528.000, 0.258
528.100, 0.246
528.200, 0.285
528.300, 0.280
528.400, 0.264
528.500, 0.253
528.600, 0.277
528.700, 0.263
528.800, 0.249
528.900, 0.261
529.000, 0.266
529.100, 0.275
529.200, 0.270
529.300, 0.230
529.400, 0.223
529.500, 0.237
529.600, 0.201
529.700, 0.191
529.800, 0.187
529.900, 0.200
530.000, 0.205
530.100, 0.196
530.200, 0.189
530.300, 0.193
530.400, 0.183
530.500, 0.193
530.600, 0.188
530.700, 0.197
530.800, 0.191
530.900, 0.174
531.000, 0.180
531.100, 0.195
531.200, 0.199
531.300, 0.197
531.400, 0.188
531.500, 0.176
531.600, 0.175
531.700, 0.174
531.800, 0.176
531.900, 0.177
532.000, 0.180
532.100, 0.190
532.200, 0.183
532.300, 0.175
532.400, 0.200
532.500, 0.173
532.600, 0.176
532.700, 0.176
532.800, 0.168
532.900, 0.163
533.000, 0.179
533.100, 0.186
533.200, 0.201
533.300, 0.193
533.400, 0.188
533.500, 0.192
533.600, 0.195
533.700, 0.213
533.800, 0.195
533.900, 0.188
534.000, 0.183
534.100, 0.182
534.200, 0.177
534.300, 0.176
534.400, 0.174
534.500, 0.171
534.600, 0.170
534.700, 0.163
534.800, 0.174
534.900, 0.179
535.000, 0.165
535.100, 0.169
535.200, 0.170
535.300, 0.144
535.400, 0.152
535.500, 0.176
535.600, 0.159
535.700, 0.159
535.800, 0.177
535.900, 0.192
536.000, 0.181
536.100, 0.184
536.200, 0.191
536.300, 0.218
536.400, 0.187
536.500, 0.194
536.600, 0.160
536.700, 0.171
536.800, 0.173
536.900, 0.166
537.000, 0.167
537.100, 0.154
537.200, 0.158
537.300, 0.158
537.400, 0.183
537.500, 0.152
537.600, 0.191
537.700, 0.180
537.800, 0.176
537.900, 0.174
538.000, 0.168
538.100, 0.212
538.200, 0.198
538.300, 0.183
538.400, 0.162
538.500, 0.164
538.600, 0.172
538.700, 0.168
538.800, 0.153
538.900, 0.166
539.000, 0.183
539.100, 0.164
539.200, 0.156
539.300, 0.172
539.400, 0.160
539.500, 0.157
539.600, 0.158
539.700, 0.168
539.800, 0.162
539.900, 0.177
540.000, 0.181
540.100, 0.193
540.200, 0.167
540.300, 0.180
540.400, 0.172
540.500, 0.166
540.600, 0.158
540.700, 0.172
540.800, 0.159
540.900, 0.171
541.000, 0.177
541.100, 0.174
541.200, 0.151
541.300, 0.150
541.400, 0.178
541.500, 0.164
541.600, 0.161
541.700, 0.166
541.800, 0.163
541.900, 0.186
542.000, 0.178
542.100, 0.182
542.200, 0.195
542.300, 0.194
542.400, 0.208
542.500, 0.191
542.600, 0.173
542.700, 0.192
542.800, 0.178
542.900, 0.167
543.000, 0.182
543.100, 0.174
543.200, 0.163
543.300, 0.159
543.400, 0.173
543.500, 0.174
543.600, 0.183
543.700, 0.193
543.800, 0.185
543.900, 0.187
544.000, 0.167
544.100, 0.166
544.200, 0.178
544.300, 0.161
544.400, 0.180
544.500, 0.182
544.600, 0.172
544.700, 0.186
544.800, 0.210
544.900, 0.198
545.000, 0.184
545.100, 0.196
545.200, 0.169
545.300, 0.192
545.400, 0.172
545.500, 0.181
545.600, 0.184
545.700, 0.173
545.800, 0.180
545.900, 0.176
546.000, 0.185
546.100, 0.160
546.200, 0.181
546.300, 0.159
546.400, 0.191
546.500, 0.178
546.600, 0.225
546.700, 0.185
546.800, 0.192
546.900, 0.185
547.000, 0.178
547.100, 0.179
547.200, 0.204
547.300, 0.198
547.400, 0.195
547.500, 0.183
547.600, 0.207
547.700, 0.195
547.800, 0.176
547.900, 0.187
548.000, 0.178
548.100, 0.206
548.200, 0.181
548.300, 0.172
548.400, 0.165
548.500, 0.200
548.600, 0.199
548.700, 0.193
548.800, 0.182
548.900, 0.188
549.000, 0.180
549.100, 0.198
549.200, 0.218
549.300, 0.210
549.400, 0.189
549.500, 0.192
549.600, 0.200
549.700, 0.177
549.800, 0.205
549.900, 0.205
550.000, 0.211
550.100, 0.216
550.200, 0.196
550.300, 0.227
550.400, 0.188
550.500, 0.208
550.600, 0.190
550.700, 0.182
550.800, 0.176
550.900, 0.189
551.000, 0.175
551.100, 0.181
551.200, 0.205
551.300, 0.193
551.400, 0.172
551.500, 0.216
551.600, 0.227
551.700, 0.197
551.800, 0.163
551.900, 0.169
552.000, 0.176
552.100, 0.167
552.200, 0.158
552.300, 0.161
552.400, 0.155
552.500, 0.182
552.600, 0.170
552.700, 0.160
552.800, 0.169
552.900, 0.160
553.000, 0.164
553.100, 0.161
553.200, 0.167
553.300, 0.178
553.400, 0.178
553.500, 0.180
553.600, 0.172
553.700, 0.172
553.800, 0.185
553.900, 0.196
554.000, 0.184
554.100, 0.217
554.200, 0.189
554.300, 0.186
554.400, 0.190
554.500, 0.203
554.600, 0.192
554.700, 0.185
554.800, 0.175
554.900, 0.180
555.000, 0.169
555.100, 0.168
555.200, 0.175
555.300, 0.188
555.400, 0.169
555.500, 0.163
555.600, 0.177
555.700, 0.177
555.800, 0.185
555.900, 0.201
556.000, 0.181
556.100, 0.193
556.200, 0.160
556.300, 0.187
556.400, 0.194
556.500, 0.186
556.600, 0.194
556.700, 0.188
556.800, 0.209
556.900, 0.196
557.000, 0.158
557.100, 0.172
557.200, 0.195
557.300, 0.226
557.400, 0.207
557.500, 0.193
557.600, 0.200
557.700, 0.210
557.800, 0.211
557.900, 0.229
558.000, 0.180
558.100, 0.170
558.200, 0.185
558.300, 0.213
558.400, 0.192
558.500, 0.186
558.600, 0.175
558.700, 0.200
558.800, 0.173
558.900, 0.172
559.000, 0.193
559.100, 0.170
559.200, 0.186
559.300, 0.179
559.400, 0.180
559.500, 0.176
559.600, 0.180
559.700, 0.189
559.800, 0.198
559.900, 0.208
560.000, 0.200
560.100, 0.187
560.200, 0.186
560.300, 0.183
560.400, 0.200
560.500, 0.212
560.600, 0.197
560.700, 0.187
560.800, 0.186
560.900, 0.184
561.000, 0.182
561.100, 0.173
561.200, 0.175
561.300, 0.168
561.400, 0.217
561.500, 0.184
561.600, 0.166
561.700, 0.158
561.800, 0.155
561.900, 0.173
562.000, 0.172
562.100, 0.162
562.200, 0.170
562.300, 0.183
562.400, 0.164
562.500, 0.172
562.600, 0.175
562.700, 0.172
562.800, 0.162
562.900, 0.174
563.000, 0.158
563.100, 0.175
563.200, 0.175
563.300, 0.159
563.400, 0.156
563.500, 0.161
563.600, 0.175
563.700, 0.159
563.800, 0.172
563.900, 0.195
564.000, 0.165
564.100, 0.174
564.200, 0.175
564.300, 0.172
564.400, 0.193
564.500, 0.201
564.600, 0.196
564.700, 0.198
564.800, 0.207
564.900, 0.200
565.000, 0.210
565.100, 0.210
565.200, 0.202
565.300, 0.202
565.400, 0.216
565.500, 0.207
565.600, 0.217
565.700, 0.229
565.800, 0.185
565.900, 0.195
566.000, 0.176
566.100, 0.200
566.200, 0.217
566.300, 0.191
566.400, 0.200
566.500, 0.195
566.600, 0.174
566.700, 0.166
566.800, 0.192
566.900, 0.200
567.000, 0.175
567.100, 0.166
567.200, 0.177
567.300, 0.191
567.400, 0.194
567.500, 0.219
567.600, 0.184
567.700, 0.170
567.800, 0.168
567.900, 0.183
568.000, 0.202
568.100, 0.164
568.200, 0.171
568.300, 0.190
568.400, 0.191
568.500, 0.184
568.600, 0.169
568.700, 0.181
568.800, 0.186
568.900, 0.172
569.000, 0.187
569.100, 0.175
569.200, 0.182
569.300, 0.174
569.400, 0.210
569.500, 0.183
569.600, 0.176
569.700, 0.164
569.800, 0.170
569.900, 0.185
570.000, 0.174
570.100, 0.185
570.200, 0.200
570.300, 0.184
570.400, 0.198
570.500, 0.191
570.600, 0.165
570.700, 0.164
570.800, 0.189
570.900, 0.174
571.000, 0.178
571.100, 0.196
571.200, 0.193
571.300, 0.204
571.400, 0.203
571.500, 0.183
571.600, 0.166
571.700, 0.180
571.800, 0.194
571.900, 0.168
572.000, 0.164
572.100, 0.167
572.200, 0.169
572.300, 0.167
572.400, 0.181
572.500, 0.194
572.600, 0.155
572.700, 0.158
572.800, 0.174
572.900, 0.173
573.000, 0.178
573.100, 0.199
573.200, 0.157
573.300, 0.157
573.400, 0.180
573.500, 0.163
573.600, 0.170
573.700, 0.181
573.800, 0.165
573.900, 0.166
574.000, 0.165
574.100, 0.177
574.200, 0.187
574.300, 0.184
574.400, 0.202
574.500, 0.186
574.600, 0.187
574.700, 0.172
574.800, 0.171
574.900, 0.171
575.000, 0.165
575.100, 0.181
575.200, 0.194
575.300, 0.191
575.400, 0.183
575.500, 0.170
575.600, 0.176
575.700, 0.181
575.800, 0.193
575.900, 0.187
576.000, 0.181
576.100, 0.189
576.200, 0.200
576.300, 0.186
576.400, 0.222
576.500, 0.199
576.600, 0.196
576.700, 0.208
576.800, 0.189
576.900, 0.171
577.000, 0.198
577.100, 0.207
577.200, 0.216
577.300, 0.184
577.400, 0.188
577.500, 0.190
577.600, 0.186
577.700, 0.186
577.800, 0.180
577.900, 0.195
578.000, 0.178
578.100, 0.186
578.200, 0.204
578.300, 0.220
578.400, 0.209
578.500, 0.181
578.600, 0.183
578.700, 0.202
578.800, 0.170
578.900, 0.201
579.000, 0.196
579.100, 0.201
579.200, 0.213
579.300, 0.202
579.400, 0.201
579.500, 0.201
579.600, 0.215
579.700, 0.210
579.800, 0.198
579.900, 0.211
580.000, 0.210
580.100, 0.193
580.200, 0.191
580.300, 0.154
580.400, 0.162
580.500, 0.174
580.600, 0.173
580.700, 0.183
580.800, 0.172
580.900, 0.165
581.000, 0.187
581.100, 0.167
581.200, 0.176
581.300, 0.170
581.400, 0.180
581.500, 0.170
581.600, 0.154
581.700, 0.182
581.800, 0.191
581.900, 0.208
582.000, 0.184
582.100, 0.163
582.200, 0.182
582.300, 0.173
582.400, 0.177
582.500, 0.164
582.600, 0.173
582.700, 0.157
582.800, 0.199
582.900, 0.194
583.000, 0.183
583.100, 0.188
583.200, 0.200
583.300, 0.185
583.400, 0.175
583.500, 0.167
583.600, 0.174
583.700, 0.170
583.800, 0.155
583.900, 0.130
584.000, 0.181
584.100, 0.154
584.200, 0.157
584.300, 0.127
584.400, 0.154
584.500, 0.162
584.600, 0.156
584.700, 0.174
584.800, 0.159
584.900, 0.180
585.000, 0.176
585.100, 0.162
585.200, 0.156
585.300, 0.163
585.400, 0.139
585.500, 0.142
585.600, 0.141
585.700, 0.165
585.800, 0.168
585.900, 0.152
586.000, 0.163
586.100, 0.195
586.200, 0.170
586.300, 0.182
586.400, 0.163
586.500, 0.181
586.600, 0.184
586.700, 0.197
586.800, 0.176
586.900, 0.147
587.000, 0.158
587.100, 0.179
587.200, 0.173
587.300, 0.181
587.400, 0.178
587.500, 0.175
587.600, 0.164
587.700, 0.163
587.800, 0.170
587.900, 0.163
588.000, 0.158
588.100, 0.171
588.200, 0.161
588.300, 0.178
588.400, 0.171
588.500, 0.163
588.600, 0.163
588.700, 0.155
588.800, 0.161
588.900, 0.160
589.000, 0.157
589.100, 0.191
589.200, 0.159
589.300, 0.168
589.400, 0.172
589.500, 0.184
589.600, 0.168
589.700, 0.170
589.800, 0.197
589.900, 0.186
590.000, 0.155
590.100, 0.161
590.200, 0.166
590.300, 0.169
590.400, 0.158
590.500, 0.181
590.600, 0.181
590.700, 0.162
590.800, 0.172
590.900, 0.184
591.000, 0.169
591.100, 0.158
591.200, 0.167
591.300, 0.180
591.400, 0.183
591.500, 0.187
591.600, 0.178
591.700, 0.182
591.800, 0.188
591.900, 0.193
592.000, 0.196
592.100, 0.174
592.200, 0.188
592.300, 0.184
592.400, 0.196
592.500, 0.180
592.600, 0.212
592.700, 0.179
592.800, 0.178
592.900, 0.177
593.000, 0.193
593.100, 0.188
593.200, 0.173
593.300, 0.180
593.400, 0.168
593.500, 0.170
593.600, 0.153
593.700, 0.151
593.800, 0.181
593.900, 0.176
594.000, 0.184
594.100, 0.157
594.200, 0.149
594.300, 0.173
594.400, 0.178
594.500, 0.204
594.600, 0.201
594.700, 0.164
594.800, 0.174
594.900, 0.182
595.000, 0.161
595.100, 0.189
595.200, 0.156
595.300, 0.168
595.400, 0.183
595.500, 0.178
595.600, 0.185
595.700, 0.184
595.800, 0.172
595.900, 0.185
596.000, 0.169
596.100, 0.170
596.200, 0.170
596.300, 0.165
596.400, 0.151
596.500, 0.158
596.600, 0.175
596.700, 0.161
596.800, 0.154
596.900, 0.152
597.000, 0.173
597.100, 0.162
597.200, 0.168
597.300, 0.156
597.400, 0.144
597.500, 0.157
597.600, 0.187
597.700, 0.166
597.800, 0.134
597.900, 0.144
598.000, 0.153
598.100, 0.153
598.200, 0.144
598.300, 0.146
598.400, 0.143
598.500, 0.190
598.600, 0.182
598.700, 0.193
598.800, 0.168
598.900, 0.184
599.000, 0.164
599.100, 0.143
599.200, 0.159
599.300, 0.149
599.400, 0.176
599.500, 0.170
599.600, 0.178
599.700, 0.191
599.800, 0.170
599.900, 0.189
600.000, 0.135
600.100, 0.177
600.200, 0.162
600.300, 0.180
600.400, 0.188
600.500, 0.176
600.600, 0.171
600.700, 0.187
600.800, 0.166
600.900, 0.185
601.000, 0.205
601.100, 0.172
601.200, 0.182
601.300, 0.169
601.400, 0.150
601.500, 0.133
601.600, 0.127
601.700, 0.160
601.800, 0.173
601.900, 0.143
602.000, 0.174
602.100, 0.155
602.200, 0.156
602.300, 0.159
602.400, 0.146
602.500, 0.135
602.600, 0.167
602.700, 0.162
602.800, 0.159
602.900, 0.159
603.000, 0.176
603.100, 0.176
603.200, 0.157
603.300, 0.175
603.400, 0.187
603.500, 0.159
603.600, 0.163
603.700, 0.171
603.800, 0.173
603.900, 0.167
604.000, 0.176
604.100, 0.167
604.200, 0.153
604.300, 0.175
604.400, 0.174
604.500, 0.169
604.600, 0.176
604.700, 0.175
604.800, 0.160
604.900, 0.158
605.000, 0.187
605.100, 0.192
605.200, 0.195
605.300, 0.186
605.400, 0.200
605.500, 0.196
605.600, 0.198
605.700, 0.173
605.800, 0.196
605.900, 0.192
606.000, 0.191
606.100, 0.181
606.200, 0.164
606.300, 0.188
606.400, 0.205
606.500, 0.186
606.600, 0.183
606.700, 0.186
606.800, 0.184
606.900, 0.160
607.000, 0.158
607.100, 0.180
607.200, 0.168
607.300, 0.171
607.400, 0.170
607.500, 0.180
607.600, 0.200
607.700, 0.185
607.800, 0.163
607.900, 0.173
608.000, 0.203
608.100, 0.171
608.200, 0.187
608.300, 0.174
608.400, 0.172
608.500, 0.159
608.600, 0.180
608.700, 0.176
608.800, 0.181
608.900, 0.220
609.000, 0.185
609.100, 0.193
609.200, 0.195
609.300, 0.187
609.400, 0.177
609.500, 0.174
609.600, 0.155
609.700, 0.169
609.800, 0.142
609.900, 0.169
610.000, 0.173
610.100, 0.173
610.200, 0.165
610.300, 0.152
610.400, 0.155
610.500, 0.149
610.600, 0.148
610.700, 0.158
610.800, 0.153
610.900, 0.160
611.000, 0.153
611.100, 0.161
611.200, 0.152
611.300, 0.168
611.400, 0.160
611.500, 0.170
611.600, 0.151
611.700, 0.141
611.800, 0.146
611.900, 0.141
612.000, 0.149
612.100, 0.134
612.200, 0.137
612.300, 0.143
612.400, 0.141
612.500, 0.151
612.600, 0.148
612.700, 0.144
612.800, 0.150
612.900, 0.134
613.000, 0.169
613.100, 0.177
613.200, 0.172
613.300, 0.199
613.400, 0.173
613.500, 0.163
613.600, 0.148
613.700, 0.149
613.800, 0.171
613.900, 0.155
614.000, 0.168
614.100, 0.145
614.200, 0.164
614.300, 0.160
614.400, 0.164
614.500, 0.173
614.600, 0.198
614.700, 0.172
614.800, 0.166
614.900, 0.150
615.000, 0.155
615.100, 0.152
615.200, 0.177
615.300, 0.150
615.400, 0.172
615.500, 0.176
615.600, 0.191
615.700, 0.188
615.800, 0.192
615.900, 0.168
616.000, 0.170
616.100, 0.144
616.200, 0.172
616.300, 0.146
616.400, 0.177
616.500, 0.181
616.600, 0.172
616.700, 0.175
616.800, 0.186
616.900, 0.188
617.000, 0.178
617.100, 0.173
617.200, 0.173
617.300, 0.180
617.400, 0.150
617.500, 0.151
617.600, 0.182
617.700, 0.176
617.800, 0.162
617.900, 0.163
618.000, 0.177
618.100, 0.181
618.200, 0.182
618.300, 0.156
618.400, 0.178
618.500, 0.170
618.600, 0.176
618.700, 0.171
618.800, 0.190
618.900, 0.167
619.000, 0.158
619.100, 0.144
619.200, 0.161
619.300, 0.148
619.400, 0.141
619.500, 0.165
619.600, 0.153
619.700, 0.166
619.800, 0.156
619.900, 0.178
620.000, 0.175
620.100, 0.170
620.200, 0.168
620.300, 0.179
620.400, 0.182
620.500, 0.219
620.600, 0.172
620.700, 0.183
620.800, 0.192
620.900, 0.173
621.000, 0.149
621.100, 0.160
621.200, 0.158
621.300, 0.141
621.400, 0.176
621.500, 0.174
621.600, 0.181
621.700, 0.184
621.800, 0.150
621.900, 0.169
622.000, 0.181
622.100, 0.171
622.200, 0.162
622.300, 0.171
622.400, 0.184
622.500, 0.163
622.600, 0.161
622.700, 0.160
622.800, 0.165
622.900, 0.180
623.000, 0.151
623.100, 0.148
623.200, 0.166
623.300, 0.188
623.400, 0.147
623.500, 0.163
623.600, 0.151
623.700, 0.173
623.800, 0.185
623.900, 0.196
624.000, 0.210
624.100, 0.189
624.200, 0.181
624.300, 0.202
624.400, 0.199
624.500, 0.189
624.600, 0.171
624.700, 0.191
624.800, 0.187
624.900, 0.183
625.000, 0.179
625.100, 0.168
625.200, 0.183
625.300, 0.195
625.400, 0.199
625.500, 0.183
625.600, 0.184
625.700, 0.182
625.800, 0.187
625.900, 0.179
626.000, 0.189
626.100, 0.168
626.200, 0.174
626.300, 0.189
626.400, 0.186
626.500, 0.196
626.600, 0.203
626.700, 0.186
626.800, 0.213
626.900, 0.207
627.000, 0.168
627.100, 0.166
627.200, 0.191
627.300, 0.169
627.400, 0.162
627.500, 0.178
627.600, 0.185
627.700, 0.184
627.800, 0.160
627.900, 0.180
628.000, 0.165
628.100, 0.166
628.200, 0.159
628.300, 0.166
628.400, 0.164
628.500, 0.187
628.600, 0.163
628.700, 0.151
628.800, 0.178
628.900, 0.167
629.000, 0.178
629.100, 0.180
629.200, 0.177
629.300, 0.131
629.400, 0.148
629.500, 0.172
629.600, 0.176
629.700, 0.169
629.800, 0.159
629.900, 0.164
630.000, 0.167
630.100, 0.143
630.200, 0.160
630.300, 0.154
630.400, 0.174
630.500, 0.147
630.600, 0.159
630.700, 0.174
630.800, 0.190
630.900, 0.167
631.000, 0.174
631.100, 0.168
631.200, 0.162
631.300, 0.175
631.400, 0.161
631.500, 0.161
631.600, 0.154
631.700, 0.167
631.800, 0.143
631.900, 0.167
632.000, 0.172
632.100, 0.181
632.200, 0.157
632.300, 0.184
632.400, 0.178
632.500, 0.162
632.600, 0.155
632.700, 0.169
632.800, 0.145
632.900, 0.158
633.000, 0.173
633.100, 0.143
633.200, 0.166
633.300, 0.152
633.400, 0.165
633.500, 0.182
633.600, 0.160
633.700, 0.169
633.800, 0.161
633.900, 0.176
634.000, 0.169
634.100, 0.199
634.200, 0.145
634.300, 0.147
634.400, 0.174
634.500, 0.153
634.600, 0.163
634.700, 0.147
634.800, 0.147
634.900, 0.143
635.000, 0.156
635.100, 0.145
635.200, 0.180
635.300, 0.173
635.400, 0.175
635.500, 0.181
635.600, 0.173
635.700, 0.170
635.800, 0.170
635.900, 0.144
636.000, 0.176
636.100, 0.151
636.200, 0.189
636.300, 0.199
636.400, 0.160
636.500, 0.173
636.600, 0.142
636.700, 0.142
636.800, 0.161
636.900, 0.145
637.000, 0.150
637.100, 0.147
637.200, 0.160
637.300, 0.152
637.400, 0.132
637.500, 0.155
637.600, 0.144
637.700, 0.157
637.800, 0.144
637.900, 0.139
638.000, 0.142
638.100, 0.147
638.200, 0.134
638.300, 0.156
638.400, 0.150
638.500, 0.154
638.600, 0.157
638.700, 0.183
638.800, 0.157
638.900, 0.163
639.000, 0.183
639.100, 0.191
639.200, 0.169
639.300, 0.153
639.400, 0.179
639.500, 0.188
639.600, 0.201
639.700, 0.193
639.800, 0.169
639.900, 0.158
640.000, 0.162
640.100, 0.145
640.200, 0.159
640.300, 0.147
640.400, 0.165
640.500, 0.176
640.600, 0.192
640.700, 0.180
640.800, 0.214
640.900, 0.201
641.000, 0.196
641.100, 0.216
641.200, 0.205
641.300, 0.191
641.400, 0.156
641.500, 0.167
641.600, 0.181
641.700, 0.186
641.800, 0.212
641.900, 0.191
642.000, 0.163
642.100, 0.163
642.200, 0.159
642.300, 0.171
642.400, 0.186
642.500, 0.162
642.600, 0.162
642.700, 0.162
642.800, 0.203
642.900, 0.155
643.000, 0.182
643.100, 0.163
643.200, 0.186
643.300, 0.156
643.400, 0.172
643.500, 0.194
643.600, 0.185
643.700, 0.173
643.800, 0.171
643.900, 0.155
644.000, 0.180
644.100, 0.190
644.200, 0.190
644.300, 0.181
644.400, 0.166
644.500, 0.167
644.600, 0.158
644.700, 0.138
644.800, 0.175
644.900, 0.169
645.000, 0.157
645.100, 0.176
645.200, 0.156
645.300, 0.149
645.400, 0.185
645.500, 0.171
645.600, 0.173
645.700, 0.168
645.800, 0.158
645.900, 0.148
646.000, 0.160
646.100, 0.171
646.200, 0.164
646.300, 0.150
646.400, 0.162
646.500, 0.178
646.600, 0.172
646.700, 0.169
646.800, 0.173
646.900, 0.168
647.000, 0.175
647.100, 0.166
647.200, 0.164
647.300, 0.172
647.400, 0.175
647.500, 0.168
647.600, 0.177
647.700, 0.212
647.800, 0.211
647.900, 0.216
648.000, 0.182
648.100, 0.200
648.200, 0.194
648.300, 0.201
648.400, 0.186
648.500, 0.197
648.600, 0.204
648.700, 0.178
648.800, 0.160
648.900, 0.181
649.000, 0.190
649.100, 0.192
649.200, 0.204
649.300, 0.195
649.400, 0.176
649.500, 0.155
649.600, 0.159
649.700, 0.157
649.800, 0.150
649.900, 0.166
650.000, 0.167
650.100, 0.154
650.200, 0.166
650.300, 0.164
650.400, 0.163
650.500, 0.143
650.600, 0.156
650.700, 0.171
650.800, 0.185
650.900, 0.164
651.000, 0.167
651.100, 0.177
651.200, 0.145
651.300, 0.166
651.400, 0.154
651.500, 0.157
651.600, 0.175
651.700, 0.169
651.800, 0.139
651.900, 0.161
652.000, 0.176
652.100, 0.137
652.200, 0.146
652.300, 0.145
652.400, 0.149
652.500, 0.157
652.600, 0.168
652.700, 0.143
652.800, 0.135
652.900, 0.170
653.000, 0.169
653.100, 0.178
653.200, 0.152
653.300, 0.165
653.400, 0.159
653.500, 0.152
653.600, 0.177
653.700, 0.172
653.800, 0.201
653.900, 0.179
654.000, 0.184
654.100, 0.169
654.200, 0.189
654.300, 0.187
654.400, 0.169
654.500, 0.187
654.600, 0.198
654.700, 0.181
654.800, 0.156
654.900, 0.185
655.000, 0.177
655.100, 0.191
655.200, 0.188
655.300, 0.172
655.400, 0.185
655.500, 0.181
655.600, 0.139
655.700, 0.171
655.800, 0.169
655.900, 0.171
656.000, 0.163
656.100, 0.160
656.200, 0.180
656.300, 0.160
656.400, 0.166
656.500, 0.165
656.600, 0.191
656.700, 0.199
656.800, 0.160
656.900, 0.150
657.000, 0.161
657.100, 0.189
657.200, 0.190
657.300, 0.159
657.400, 0.150
657.500, 0.175
657.600, 0.183
657.700, 0.178
657.800, 0.183
657.900, 0.181
658.000, 0.166
658.100, 0.181
658.200, 0.174
658.300, 0.164
658.400, 0.163
658.500, 0.154
658.600, 0.161
658.700, 0.153
658.800, 0.142
658.900, 0.160
659.000, 0.171
659.100, 0.134
659.200, 0.144
659.300, 0.142
659.400, 0.155
659.500, 0.153
659.600, 0.153
659.700, 0.157
659.800, 0.184
659.900, 0.209
660.000, 0.165
660.100, 0.174
660.200, 0.156
660.300, 0.171
660.400, 0.201
660.500, 0.179
660.600, 0.204
660.700, 0.207
660.800, 0.175
660.900, 0.172
661.000, 0.182
661.100, 0.164
661.200, 0.175
661.300, 0.187
661.400, 0.179
661.500, 0.150
661.600, 0.173
661.700, 0.168
661.800, 0.198
661.900, 0.181
662.000, 0.193
662.100, 0.170
662.200, 0.185
662.300, 0.178
662.400, 0.192
662.500, 0.159
662.600, 0.188
662.700, 0.207
662.800, 0.191
662.900, 0.185
663.000, 0.187
663.100, 0.173
663.200, 0.183
663.300, 0.186
663.400, 0.213
663.500, 0.186
663.600, 0.185
663.700, 0.180
663.800, 0.179
663.900, 0.174
664.000, 0.181
664.100, 0.205
664.200, 0.194
664.300, 0.195
664.400, 0.189
664.500, 0.197
664.600, 0.195
664.700, 0.191
664.800, 0.205
664.900, 0.211
665.000, 0.217
665.100, 0.214
665.200, 0.199
665.300, 0.180
665.400, 0.186
665.500, 0.176
665.600, 0.191
665.700, 0.193
665.800, 0.186
665.900, 0.178
666.000, 0.176
666.100, 0.162
666.200, 0.148
666.300, 0.136
666.400, 0.153
666.500, 0.162
666.600, 0.202
666.700, 0.198
666.800, 0.203
666.900, 0.175
667.000, 0.175
667.100, 0.173
667.200, 0.175
667.300, 0.150
667.400, 0.151
667.500, 0.168
667.600, 0.180
667.700, 0.178
667.800, 0.169
667.900, 0.170
668.000, 0.152
668.100, 0.174
668.200, 0.169
668.300, 0.177
668.400, 0.199
668.500, 0.169
668.600, 0.172
668.700, 0.181
668.800, 0.179
668.900, 0.172
669.000, 0.169
669.100, 0.169
669.200, 0.180
669.300, 0.172
669.400, 0.177
669.500, 0.170
669.600, 0.168
669.700, 0.178
669.800, 0.164
669.900, 0.161
670.000, 0.174
670.100, 0.194
670.200, 0.185
670.300, 0.166
670.400, 0.154
670.500, 0.158
670.600, 0.152
670.700, 0.169
670.800, 0.181
670.900, 0.174
671.000, 0.184
671.100, 0.196
671.200, 0.216
671.300, 0.201
671.400, 0.229
671.500, 0.202
671.600, 0.193
671.700, 0.193
671.800, 0.198
671.900, 0.189
672.000, 0.187
672.100, 0.221
672.200, 0.207
672.300, 0.196
672.400, 0.201
672.500, 0.196
672.600, 0.175
672.700, 0.186
672.800, 0.162
672.900, 0.155
673.000, 0.170
673.100, 0.164
673.200, 0.148
673.300, 0.137
673.400, 0.131
673.500, 0.132
673.600, 0.136
673.700, 0.126
673.800, 0.146
673.900, 0.143
674.000, 0.168
674.100, 0.147
674.200, 0.153
674.300, 0.181
674.400, 0.163
674.500, 0.154
674.600, 0.145
674.700, 0.176
674.800, 0.172
674.900, 0.159
675.000, 0.162
675.100, 0.144
675.200, 0.159
675.300, 0.172
675.400, 0.160
675.500, 0.144
675.600, 0.165
675.700, 0.179
675.800, 0.160
675.900, 0.143
676.000, 0.158
676.100, 0.153
676.200, 0.151
676.300, 0.178
676.400, 0.179
676.500, 0.175
676.600, 0.165
676.700, 0.158
676.800, 0.157
676.900, 0.168
677.000, 0.174
677.100, 0.151
677.200, 0.179
677.300, 0.177
677.400, 0.147
677.500, 0.185
677.600, 0.173
677.700, 0.181
677.800, 0.165
677.900, 0.185
678.000, 0.171
678.100, 0.231
678.200, 0.197
678.300, 0.176
678.400, 0.171
678.500, 0.161
678.600, 0.186
678.700, 0.162
678.800, 0.176
678.900, 0.172
679.000, 0.175
679.100, 0.189
679.200, 0.178
679.300, 0.192
679.400, 0.172
679.500, 0.168
679.600, 0.170
679.700, 0.142
679.800, 0.158
679.900, 0.162
680.000, 0.158
680.100, 0.162
680.200, 0.162
680.300, 0.159
680.400, 0.158
680.500, 0.143
680.600, 0.144
680.700, 0.158
680.800, 0.156
680.900, 0.152
681.000, 0.171
681.100, 0.165
681.200, 0.193
681.300, 0.167
681.400, 0.181
681.500, 0.156
681.600, 0.159
681.700, 0.174
681.800, 0.162
681.900, 0.155
682.000, 0.157
682.100, 0.137
682.200, 0.180
682.300, 0.159
682.400, 0.165
682.500, 0.169
682.600, 0.162
682.700, 0.145
682.800, 0.163
682.900, 0.146
683.000, 0.158
683.100, 0.165
683.200, 0.164
683.300, 0.155
683.400, 0.172
683.500, 0.188
683.600, 0.180
683.700, 0.164
683.800, 0.179
683.900, 0.157
684.000, 0.181
684.100, 0.139
684.200, 0.157
684.300, 0.178
684.400, 0.180
684.500, 0.201
684.600, 0.195
684.700, 0.177
684.800, 0.185
684.900, 0.205
685.000, 0.185
685.100, 0.173
685.200, 0.192
685.300, 0.183
685.400, 0.188
685.500, 0.180
685.600, 0.172
685.700, 0.191
685.800, 0.204
685.900, 0.182
686.000, 0.167
686.100, 0.176
686.200, 0.177
686.300, 0.179
686.400, 0.171
686.500, 0.162
686.600, 0.164
686.700, 0.171
686.800, 0.204
686.900, 0.188
687.000, 0.195
687.100, 0.141
687.200, 0.163
687.300, 0.173
687.400, 0.153
687.500, 0.171
687.600, 0.177
687.700, 0.172
687.800, 0.165
687.900, 0.185
688.000, 0.187
688.100, 0.180
688.200, 0.169
688.300, 0.183
688.400, 0.195
688.500, 0.169
688.600, 0.185
688.700, 0.187
688.800, 0.189
688.900, 0.169
689.000, 0.164
689.100, 0.169
689.200, 0.163
689.300, 0.148
689.400, 0.168
689.500, 0.158
689.600, 0.160
689.700, 0.173
689.800, 0.181
689.900, 0.166
690.000, 0.185
690.100, 0.168
690.200, 0.162
690.300, 0.170
690.400, 0.165
690.500, 0.160
690.600, 0.171
690.700, 0.146
690.800, 0.164
690.900, 0.171
691.000, 0.165
691.100, 0.196
691.200, 0.169
691.300, 0.163
691.400, 0.158
691.500, 0.174
691.600, 0.178
691.700, 0.175
691.800, 0.191
691.900, 0.164
692.000, 0.166
692.100, 0.152
692.200, 0.150
692.300, 0.147
692.400, 0.168
692.500, 0.161
692.600, 0.163
692.700, 0.153
692.800, 0.181
692.900, 0.166
693.000, 0.173
693.100, 0.164
693.200, 0.156
693.300, 0.193
693.400, 0.177
693.500, 0.174
693.600, 0.169
693.700, 0.153
693.800, 0.159
693.900, 0.161
694.000, 0.185
694.100, 0.168
694.200, 0.170
694.300, 0.174
694.400, 0.184
694.500, 0.161
694.600, 0.167
694.700, 0.166
694.800, 0.139
694.900, 0.146
695.000, 0.149
695.100, 0.155
695.200, 0.153
695.300, 0.165
695.400, 0.158
695.500, 0.144
695.600, 0.137
695.700, 0.126
695.800, 0.140
695.900, 0.148
696.000, 0.159
696.100, 0.153
696.200, 0.130
696.300, 0.152
696.400, 0.147
696.500, 0.146
696.600, 0.153
696.700, 0.142
696.800, 0.159
696.900, 0.153
697.000, 0.155
697.100, 0.143
697.200, 0.166
697.300, 0.140
697.400, 0.152
697.500, 0.177
697.600, 0.174
697.700, 0.148
697.800, 0.163
697.900, 0.157
698.000, 0.140
698.100, 0.136
698.200, 0.152
698.300, 0.153
698.400, 0.152
698.500, 0.146
698.600, 0.146
698.700, 0.149
698.800, 0.132
698.900, 0.137
699.000, 0.139
699.100, 0.167
699.200, 0.143
699.300, 0.151
699.400, 0.158
699.500, 0.152
699.600, 0.153
699.700, 0.167
699.800, 0.161
699.900, 0.168
700.000, 0.150
700.100, 0.137
700.200, 0.151
700.300, 0.151
700.400, 0.153
700.500, 0.165
700.600, 0.150
700.700, 0.147
700.800, 0.176
700.900, 0.167
701.000, 0.140
701.100, 0.151
701.200, 0.165
701.300, 0.161
701.400, 0.151
701.500, 0.152
701.600, 0.156
701.700, 0.165
701.800, 0.163
701.900, 0.143
702.000, 0.137
702.100, 0.150
702.200, 0.168
702.300, 0.163
702.400, 0.169
702.500, 0.149
702.600, 0.174
702.700, 0.182
702.800, 0.193
702.900, 0.201
703.000, 0.170
703.100, 0.186
703.200, 0.184
703.300, 0.155
703.400, 0.174
703.500, 0.184
703.600, 0.156
703.700, 0.166
703.800, 0.184
703.900, 0.175
704.000, 0.157
704.100, 0.155
704.200, 0.147
704.300, 0.158
704.400, 0.170
704.500, 0.162
704.600, 0.152
704.700, 0.160
704.800, 0.148
704.900, 0.160
705.000, 0.156
705.100, 0.145
705.200, 0.148
705.300, 0.162
705.400, 0.176
705.500, 0.157
705.600, 0.164
705.700, 0.148
705.800, 0.142
705.900, 0.162
706.000, 0.159
706.100, 0.147
706.200, 0.152
706.300, 0.168
706.400, 0.189
706.500, 0.202
706.600, 0.152
706.700, 0.154
706.800, 0.166
706.900, 0.186
707.000, 0.206
707.100, 0.213
707.200, 0.201
707.300, 0.224
707.400, 0.213
707.500, 0.208
707.600, 0.205
707.700, 0.213
707.800, 0.195
707.900, 0.208
708.000, 0.173
708.100, 0.166
708.200, 0.195
708.300, 0.190
708.400, 0.178
708.500, 0.213
708.600, 0.209
708.700, 0.165
708.800, 0.220
708.900, 0.206
709.000, 0.175
709.100, 0.146
709.200, 0.149
709.300, 0.156
709.400, 0.159
709.500, 0.182
709.600, 0.164
709.700, 0.161
709.800, 0.174
709.900, 0.156
710.000, 0.147
710.100, 0.176
710.200, 0.149
710.300, 0.133
710.400, 0.141
710.500, 0.137
710.600, 0.144
710.700, 0.144
710.800, 0.157
710.900, 0.152
711.000, 0.163
711.100, 0.166
711.200, 0.158
711.300, 0.156
711.400, 0.158
711.500, 0.142
711.600, 0.176
711.700, 0.171
711.800, 0.160
711.900, 0.148
712.000, 0.137
712.100, 0.166
712.200, 0.136
712.300, 0.168
712.400, 0.137
712.500, 0.180
712.600, 0.177
712.700, 0.151
712.800, 0.142
712.900, 0.143
713.000, 0.152
713.100, 0.123
713.200, 0.119
713.300, 0.140
713.400, 0.138
713.500, 0.135
713.600, 0.161
713.700, 0.168
713.800, 0.139
713.900, 0.154
714.000, 0.149
714.100, 0.157
714.200, 0.149
714.300, 0.171
714.400, 0.174
714.500, 0.162
714.600, 0.165
714.700, 0.162
714.800, 0.142
714.900, 0.155
715.000, 0.156
715.100, 0.150
715.200, 0.145
715.300, 0.169
715.400, 0.166
715.500, 0.138
715.600, 0.175
715.700, 0.147
715.800, 0.138
715.900, 0.152
716.000, 0.141
716.100, 0.140
716.200, 0.107
716.300, 0.109
716.400, 0.141
716.500, 0.151
716.600, 0.134
716.700, 0.157
716.800, 0.137
716.900, 0.141
717.000, 0.142
717.100, 0.142
717.200, 0.132
717.300, 0.147
717.400, 0.158
717.500, 0.145
717.600, 0.112
717.700, 0.115
717.800, 0.138
717.900, 0.125
718.000, 0.146
718.100, 0.136
718.200, 0.124
718.300, 0.128
718.400, 0.138
718.500, 0.139
718.600, 0.133
718.700, 0.110
718.800, 0.118
718.900, 0.122
719.000, 0.149
719.100, 0.150
719.200, 0.146
719.300, 0.145
719.400, 0.182
719.500, 0.163
719.600, 0.166
719.700, 0.146
719.800, 0.128
719.900, 0.122
720.000, 0.126
720.100, 0.152
720.200, 0.140
720.300, 0.145
720.400, 0.150
720.500, 0.146
720.600, 0.138
720.700, 0.131
720.800, 0.155
720.900, 0.151
721.000, 0.134
721.100, 0.119
721.200, 0.141
721.300, 0.159
721.400, 0.174
721.500, 0.150
721.600, 0.153
721.700, 0.133
721.800, 0.162
721.900, 0.156
722.000, 0.137
722.100, 0.138
722.200, 0.143
722.300, 0.161
722.400, 0.141
722.500, 0.132
722.600, 0.123
722.700, 0.130
722.800, 0.145
722.900, 0.141
723.000, 0.145
723.100, 0.145
723.200, 0.140
723.300, 0.125
723.400, 0.146
723.500, 0.125
723.600, 0.162
723.700, 0.156
723.800, 0.125
723.900, 0.140
724.000, 0.129
724.100, 0.126
724.200, 0.116
724.300, 0.123
724.400, 0.164
724.500, 0.136
724.600, 0.128
724.700, 0.146
724.800, 0.172
724.900, 0.135
725.000, 0.156
725.100, 0.142
725.200, 0.152
725.300, 0.152
725.400, 0.130
725.500, 0.153
725.600, 0.158
725.700, 0.141
725.800, 0.142
725.900, 0.158
726.000, 0.160
726.100, 0.166
726.200, 0.150
726.300, 0.142
726.400, 0.155
726.500, 0.145
726.600, 0.146
726.700, 0.176
726.800, 0.154
726.900, 0.150
727.000, 0.180
727.100, 0.141
727.200, 0.130
727.300, 0.140
727.400, 0.144
727.500, 0.126
727.600, 0.153
727.700, 0.122
727.800, 0.152
727.900, 0.157
728.000, 0.156
728.100, 0.135
728.200, 0.141
728.300, 0.160
728.400, 0.153
728.500, 0.156
728.600, 0.146
728.700, 0.146
728.800, 0.137
728.900, 0.141
729.000, 0.146
729.100, 0.153
729.200, 0.156
729.300, 0.139
729.400, 0.141
729.500, 0.138
729.600, 0.139
729.700, 0.127
729.800, 0.146
729.900, 0.150
730.000, 0.152
730.100, 0.138
730.200, 0.112
730.300, 0.141
730.400, 0.160
730.500, 0.150
730.600, 0.133
730.700, 0.135
730.800, 0.130
730.900, 0.118
731.000, 0.131
731.100, 0.151
731.200, 0.128
731.300, 0.153
731.400, 0.145
731.500, 0.178
731.600, 0.182
731.700, 0.169
731.800, 0.160
731.900, 0.153
732.000, 0.166
732.100, 0.180
732.200, 0.167
732.300, 0.138
732.400, 0.147
732.500, 0.134
732.600, 0.136
732.700, 0.142
732.800, 0.156
732.900, 0.135
733.000, 0.152
733.100, 0.151
733.200, 0.160
733.300, 0.167
733.400, 0.158
733.500, 0.158
733.600, 0.155
733.700, 0.164
733.800, 0.152
733.900, 0.162
734.000, 0.154
734.100, 0.119
734.200, 0.146
734.300, 0.156
734.400, 0.153
734.500, 0.155
734.600, 0.170
734.700, 0.140
734.800, 0.179
734.900, 0.162
735.000, 0.139
735.100, 0.162
735.200, 0.136
735.300, 0.141
735.400, 0.137
735.500, 0.148
735.600, 0.174
735.700, 0.161
735.800, 0.154
735.900, 0.142
736.000, 0.167
736.100, 0.149
736.200, 0.139
736.300, 0.123
736.400, 0.136
736.500, 0.174
736.600, 0.161
736.700, 0.125
736.800, 0.149
736.900, 0.150
737.000, 0.131
737.100, 0.187
737.200, 0.160
737.300, 0.139
737.400, 0.156
737.500, 0.169
737.600, 0.146
737.700, 0.154
737.800, 0.155
737.900, 0.146
738.000, 0.155
738.100, 0.138
738.200, 0.155
738.300, 0.159
738.400, 0.150
738.500, 0.156
738.600, 0.160
738.700, 0.140
738.800, 0.124
738.900, 0.145
739.000, 0.132
739.100, 0.132
739.200, 0.144
739.300, 0.162
739.400, 0.136
739.500, 0.123
739.600, 0.132
739.700, 0.131
739.800, 0.125
739.900, 0.123
740.000, 0.126
740.100, 0.114
740.200, 0.133
740.300, 0.115
740.400, 0.149
740.500, 0.140
740.600, 0.142
740.700, 0.149
740.800, 0.160
740.900, 0.158
741.000, 0.159
741.100, 0.144
741.200, 0.138
741.300, 0.138
741.400, 0.147
741.500, 0.168
741.600, 0.147
741.700, 0.122
741.800, 0.129
741.900, 0.099
742.000, 0.096
742.100, 0.112
742.200, 0.111
742.300, 0.102
742.400, 0.132
742.500, 0.132
742.600, 0.123
742.700, 0.127
742.800, 0.138
742.900, 0.111
743.000, 0.137
743.100, 0.133
743.200, 0.140
743.300, 0.135
743.400, 0.130
743.500, 0.131
743.600, 0.146
743.700, 0.188
743.800, 0.158
743.900, 0.152
744.000, 0.143
744.100, 0.134
744.200, 0.131
744.300, 0.157
744.400, 0.144
744.500, 0.136
744.600, 0.112
744.700, 0.115
744.800, 0.124
744.900, 0.110
745.000, 0.157
745.100, 0.152
745.200, 0.171
745.300, 0.125
745.400, 0.129
745.500, 0.119
745.600, 0.122
745.700, 0.124
745.800, 0.124
745.900, 0.117
746.000, 0.129
746.100, 0.122
746.200, 0.123
746.300, 0.146
746.400, 0.134
746.500, 0.146
746.600, 0.122
746.700, 0.112
746.800, 0.137
746.900, 0.161
747.000, 0.154
747.100, 0.161
747.200, 0.137
747.300, 0.137
747.400, 0.150
747.500, 0.171
747.600, 0.146
747.700, 0.153
747.800, 0.147
747.900, 0.160
748.000, 0.140
748.100, 0.153
748.200, 0.132
748.300, 0.154
748.400, 0.144
748.500, 0.167
748.600, 0.179
748.700, 0.198
748.800, 0.180
748.900, 0.168
749.000, 0.135
749.100, 0.156
749.200, 0.150
749.300, 0.120
749.400, 0.155
749.500, 0.164
749.600, 0.142
749.700, 0.164
749.800, 0.176
749.900, 0.181
750.000, 0.197
750.100, 0.175
750.200, 0.159
750.300, 0.180
750.400, 0.167
750.500, 0.158
750.600, 0.183
750.700, 0.189
750.800, 0.179
750.900, 0.166
751.000, 0.145
751.100, 0.169
751.200, 0.170
751.300, 0.185
751.400, 0.148
751.500, 0.153
751.600, 0.171
751.700, 0.164
751.800, 0.143
751.900, 0.159
752.000, 0.154
752.100, 0.181
752.200, 0.140
752.300, 0.134
752.400, 0.130
752.500, 0.134
752.600, 0.139
752.700, 0.127
752.800, 0.144
752.900, 0.142
753.000, 0.130
753.100, 0.177
753.200, 0.172
753.300, 0.158
753.400, 0.173
753.500, 0.151
753.600, 0.170
753.700, 0.179
753.800, 0.176
753.900, 0.163
754.000, 0.166
754.100, 0.169
754.200, 0.166
754.300, 0.175
754.400, 0.157
754.500, 0.195
754.600, 0.194
754.700, 0.183
754.800, 0.169
754.900, 0.177
755.000, 0.194
755.100, 0.196
755.200, 0.190
755.300, 0.197
755.400, 0.214
755.500, 0.188
755.600, 0.199
755.700, 0.144
755.800, 0.181
755.900, 0.172
756.000, 0.196
756.100, 0.186
756.200, 0.186
756.300, 0.207
756.400, 0.167
756.500, 0.175
756.600, 0.164
756.700, 0.174
756.800, 0.193
756.900, 0.173
757.000, 0.180
757.100, 0.179
757.200, 0.147
757.300, 0.165
757.400, 0.153
757.500, 0.154
757.600, 0.171
757.700, 0.162
757.800, 0.168
757.900, 0.162
758.000, 0.177
758.100, 0.165
758.200, 0.167
758.300, 0.150
758.400, 0.183
758.500, 0.166
758.600, 0.161
758.700, 0.164
758.800, 0.177
758.900, 0.151
759.000, 0.148
759.100, 0.167
759.200, 0.146
759.300, 0.163
759.400, 0.155
759.500, 0.187
759.600, 0.158
759.700, 0.165
759.800, 0.181
759.900, 0.164
760.000, 0.179
760.100, 0.192
760.200, 0.196
760.300, 0.158
760.400, 0.196
760.500, 0.187
760.600, 0.193
760.700, 0.161
760.800, 0.170
760.900, 0.168
761.000, 0.154
761.100, 0.169
761.200, 0.182
761.300, 0.168
761.400, 0.173
761.500, 0.148
761.600, 0.147
761.700, 0.148
761.800, 0.156
761.900, 0.156
762.000, 0.151
762.100, 0.148
762.200, 0.162
762.300, 0.183
762.400, 0.151
762.500, 0.158
762.600, 0.162
762.700, 0.164
762.800, 0.155
762.900, 0.175
763.000, 0.162
763.100, 0.171
763.200, 0.155
763.300, 0.165
763.400, 0.164
763.500, 0.161
763.600, 0.171
763.700, 0.180
763.800, 0.201
763.900, 0.179
764.000, 0.198
764.100, 0.165
764.200, 0.167
764.300, 0.156
764.400, 0.177
764.500, 0.145
764.600, 0.154
764.700, 0.175
764.800, 0.197
764.900, 0.175
765.000, 0.174
765.100, 0.174
765.200, 0.175
765.300, 0.162
765.400, 0.162
765.500, 0.180
765.600, 0.176
765.700, 0.189
765.800, 0.163
765.900, 0.177
766.000, 0.176
766.100, 0.162
766.200, 0.151
766.300, 0.168
766.400, 0.157
766.500, 0.149
766.600, 0.174
766.700, 0.165
766.800, 0.149
766.900, 0.174
767.000, 0.128
767.100, 0.137
767.200, 0.154
767.300, 0.142
767.400, 0.158
767.500, 0.170
767.600, 0.154
767.700, 0.159
767.800, 0.156
767.900, 0.187
768.000, 0.170
768.100, 0.168
768.200, 0.160
768.300, 0.169
768.400, 0.183
768.500, 0.156
768.600, 0.147
768.700, 0.147
768.800, 0.161
768.900, 0.153
769.000, 0.150
769.100, 0.169
769.200, 0.144
769.300, 0.171
769.400, 0.171
769.500, 0.169
769.600, 0.164
769.700, 0.163
769.800, 0.176
769.900, 0.184
770.000, 0.183
770.100, 0.177
770.200, 0.171
770.300, 0.194
770.400, 0.184
770.500, 0.193
770.600, 0.173
770.700, 0.180
770.800, 0.171
770.900, 0.169
771.000, 0.177
771.100, 0.166
771.200, 0.188
771.300, 0.158
771.400, 0.171
771.500, 0.170
771.600, 0.160
771.700, 0.172
771.800, 0.171
771.900, 0.177
772.000, 0.178
772.100, 0.179
772.200, 0.157
772.300, 0.157
772.400, 0.127
772.500, 0.142
772.600, 0.143
772.700, 0.148
772.800, 0.145
772.900, 0.124
773.000, 0.155
773.100, 0.159
773.200, 0.157
773.300, 0.149
773.400, 0.144
773.500, 0.164
773.600, 0.143
773.700, 0.170
773.800, 0.181
773.900, 0.160
774.000, 0.136
774.100, 0.156
774.200, 0.143
774.300, 0.172
774.400, 0.151
774.500, 0.163
774.600, 0.181
774.700, 0.173
774.800, 0.156
774.900, 0.152
775.000, 0.160
775.100, 0.160
775.200, 0.161
775.300, 0.167
775.400, 0.178
775.500, 0.172
775.600, 0.190
775.700, 0.168
775.800, 0.178
775.900, 0.161
776.000, 0.153
776.100, 0.173
776.200, 0.182
776.300, 0.152
776.400, 0.159
776.500, 0.157
776.600, 0.127
776.700, 0.143
776.800, 0.164
776.900, 0.161
777.000, 0.154
777.100, 0.146
777.200, 0.154
777.300, 0.128
777.400, 0.152
777.500, 0.143
777.600, 0.134
777.700, 0.141
777.800, 0.160
777.900, 0.173
778.000, 0.184
778.100, 0.171
778.200, 0.164
778.300, 0.182
778.400, 0.158
778.500, 0.169
778.600, 0.163
778.700, 0.168
778.800, 0.143
778.900, 0.139
779.000, 0.156
779.100, 0.146
779.200, 0.152
779.300, 0.169
779.400, 0.152
779.500, 0.163
779.600, 0.151
779.700, 0.149
779.800, 0.158
779.900, 0.142
780.000, 0.169
780.100, 0.168
780.200, 0.146
780.300, 0.143
780.400, 0.136
780.500, 0.147
780.600, 0.146
780.700, 0.150
780.800, 0.161
780.900, 0.173
781.000, 0.162
781.100, 0.165
781.200, 0.179
781.300, 0.144
781.400, 0.164
781.500, 0.168
781.600, 0.166
781.700, 0.173
781.800, 0.146
781.900, 0.168
782.000, 0.151
782.100, 0.158
782.200, 0.138
782.300, 0.138
782.400, 0.134
782.500, 0.151
782.600, 0.153
782.700, 0.165
782.800, 0.160
782.900, 0.164
783.000, 0.159
783.100, 0.134
783.200, 0.166
783.300, 0.168
783.400, 0.150
783.500, 0.149
783.600, 0.163
783.700, 0.161
783.800, 0.149
783.900, 0.147
784.000, 0.162
784.100, 0.151
784.200, 0.146
784.300, 0.160
784.400, 0.143
784.500, 0.154
784.600, 0.143
784.700, 0.150
784.800, 0.141
784.900, 0.151
785.000, 0.131
785.100, 0.126
785.200, 0.155
785.300, 0.128
785.400, 0.132
785.500, 0.134
785.600, 0.117
785.700, 0.167
785.800, 0.148
785.900, 0.164
786.000, 0.128
786.100, 0.142
786.200, 0.124
786.300, 0.151
786.400, 0.179
786.500, 0.137
786.600, 0.166
786.700, 0.140
786.800, 0.141
786.900, 0.184
787.000, 0.161
787.100, 0.135
787.200, 0.154
787.300, 0.146
787.400, 0.144
787.500, 0.141
787.600, 0.141
787.700, 0.159
787.800, 0.156
787.900, 0.141
788.000, 0.132
788.100, 0.140
788.200, 0.155
788.300, 0.142
788.400, 0.150
788.500, 0.161
788.600, 0.172
788.700, 0.169
788.800, 0.149
788.900, 0.160
789.000, 0.133
789.100, 0.129
789.200, 0.131
789.300, 0.140
789.400, 0.154
789.500, 0.130
789.600, 0.137
789.700, 0.154
789.800, 0.164
789.900, 0.156
790.000, 0.129
790.100, 0.137
790.200, 0.126
790.300, 0.145
790.400, 0.129
790.500, 0.148
790.600, 0.147
790.700, 0.161
790.800, 0.136
790.900, 0.144
791.000, 0.145
791.100, 0.154
791.200, 0.165
791.300, 0.169
791.400, 0.191
791.500, 0.166
791.600, 0.155
791.700, 0.167
791.800, 0.170
791.900, 0.162
792.000, 0.178
792.100, 0.186
792.200, 0.171
792.300, 0.178
792.400, 0.179
792.500, 0.158
792.600, 0.163
792.700, 0.166
792.800, 0.208
792.900, 0.169
793.000, 0.172
793.100, 0.173
793.200, 0.178
793.300, 0.176
793.400, 0.156
793.500, 0.175
793.600, 0.162
793.700, 0.184
793.800, 0.175
793.900, 0.189
794.000, 0.181
794.100, 0.191
794.200, 0.191
794.300, 0.150
794.400, 0.165
794.500, 0.137
794.600, 0.153
794.700, 0.142
794.800, 0.148
794.900, 0.166
795.000, 0.182
795.100, 0.165
795.200, 0.144
795.300, 0.155
795.400, 0.140
795.500, 0.171
795.600, 0.151
795.700, 0.139
795.800, 0.153
795.900, 0.145
796.000, 0.138
796.100, 0.142
796.200, 0.159
796.300, 0.154
796.400, 0.147
796.500, 0.155
796.600, 0.146
796.700, 0.160
796.800, 0.142
796.900, 0.158
797.000, 0.156
797.100, 0.146
797.200, 0.158
797.300, 0.144
797.400, 0.176
797.500, 0.192
797.600, 0.188
797.700, 0.173
797.800, 0.163
797.900, 0.177
798.000, 0.170
798.100, 0.183
798.200, 0.172
798.300, 0.169
798.400, 0.172
798.500, 0.175
798.600, 0.166
798.700, 0.163
798.800, 0.163
798.900, 0.161
799.000, 0.164
799.100, 0.172
799.200, 0.179
799.300, 0.174
799.400, 0.172
799.500, 0.179
799.600, 0.179
799.700, 0.159
799.800, 0.162
799.900, 0.171
800.000, 0.175
800.100, 0.173
800.200, 0.166
800.300, 0.171
800.400, 0.190
800.500, 0.168
800.600, 0.182
800.700, 0.215
800.800, 0.209
800.900, 0.207
801.000, 0.196
801.100, 0.187
801.200, 0.196
801.300, 0.179
801.400, 0.191
801.500, 0.177
801.600, 0.170
801.700, 0.182
801.800, 0.172
801.900, 0.149
802.000, 0.158
802.100, 0.185
802.200, 0.178
802.300, 0.188
802.400, 0.182
802.500, 0.172
802.600, 0.175
802.700, 0.176
802.800, 0.177
802.900, 0.199
803.000, 0.183
803.100, 0.203
803.200, 0.193
803.300, 0.173
803.400, 0.166
803.500, 0.194
803.600, 0.183
803.700, 0.181
803.800, 0.192
803.900, 0.206
804.000, 0.208
804.100, 0.201
804.200, 0.181
804.300, 0.176
804.400, 0.184
804.500, 0.166
804.600, 0.170
804.700, 0.151
804.800, 0.181
804.900, 0.191
805.000, 0.175
805.100, 0.148
805.200, 0.160
805.300, 0.159
805.400, 0.156
805.500, 0.174
805.600, 0.139
805.700, 0.161
805.800, 0.147
805.900, 0.147
806.000, 0.154
806.100, 0.138
806.200, 0.138
806.300, 0.129
806.400, 0.149
806.500, 0.126
806.600, 0.129
806.700, 0.154
806.800, 0.133
806.900, 0.136
807.000, 0.147
807.100, 0.153
807.200, 0.136
807.300, 0.152
807.400, 0.167
807.500, 0.162
807.600, 0.156
807.700, 0.154
807.800, 0.137
807.900, 0.159
808.000, 0.149
808.100, 0.162
808.200, 0.165
808.300, 0.171
808.400, 0.171
808.500, 0.161
808.600, 0.162
808.700, 0.141
808.800, 0.151
808.900, 0.158
809.000, 0.163
809.100, 0.166
809.200, 0.160
809.300, 0.156
809.400, 0.165
809.500, 0.173
809.600, 0.165
809.700, 0.158
809.800, 0.143
809.900, 0.145
810.000, 0.137
810.100, 0.133
810.200, 0.132
810.300, 0.143
810.400, 0.162
810.500, 0.153
810.600, 0.155
810.700, 0.130
810.800, 0.144
810.900, 0.155
811.000, 0.151
811.100, 0.139
811.200, 0.140
811.300, 0.152
811.400, 0.201
811.500, 0.162
811.600, 0.152
811.700, 0.145
811.800, 0.146
811.900, 0.170
812.000, 0.169
812.100, 0.175
812.200, 0.159
812.300, 0.149
812.400, 0.135
812.500, 0.152
812.600, 0.171
812.700, 0.138
812.800, 0.156
812.900, 0.173
813.000, 0.144
813.100, 0.160
813.200, 0.146
813.300, 0.160
813.400, 0.174
813.500, 0.167
813.600, 0.158
813.700, 0.185
813.800, 0.163
813.900, 0.149
814.000, 0.171
814.100, 0.181
814.200, 0.188
814.300, 0.163
814.400, 0.156
814.500, 0.174
814.600, 0.176
814.700, 0.172
814.800, 0.167
814.900, 0.159
815.000, 0.159
815.100, 0.159
815.200, 0.170
815.300, 0.152
815.400, 0.163
815.500, 0.178
815.600, 0.180
815.700, 0.178
815.800, 0.174
815.900, 0.182
816.000, 0.169
816.100, 0.146
816.200, 0.140
816.300, 0.147
816.400, 0.169
816.500, 0.144
816.600, 0.164
816.700, 0.158
816.800, 0.142
816.900, 0.152
817.000, 0.171
817.100, 0.147
817.200, 0.176
817.300, 0.169
817.400, 0.173
817.500, 0.160
817.600, 0.171
817.700, 0.158
817.800, 0.188
817.900, 0.174
818.000, 0.150
818.100, 0.148
818.200, 0.155
818.300, 0.130
818.400, 0.137
818.500, 0.166
818.600, 0.183
818.700, 0.177
818.800, 0.155
818.900, 0.190
819.000, 0.202
819.100, 0.153
819.200, 0.144
819.300, 0.145
819.400, 0.151
819.500, 0.145
819.600, 0.166
819.700, 0.161
819.800, 0.153
819.900, 0.159
820.000, 0.153
820.100, 0.163
820.200, 0.189
820.300, 0.178
820.400, 0.163
820.500, 0.165
820.600, 0.174
820.700, 0.174
820.800, 0.168
820.900, 0.178
821.000, 0.155
821.100, 0.156
821.200, 0.163
821.300, 0.157
821.400, 0.158
821.500, 0.136
821.600, 0.160
821.700, 0.175
821.800, 0.163
821.900, 0.173
822.000, 0.142
822.100, 0.175
822.200, 0.144
822.300, 0.167
822.400, 0.133
822.500, 0.147
822.600, 0.133
822.700, 0.142
822.800, 0.176
822.900, 0.153
823.000, 0.161
823.100, 0.151
823.200, 0.149
823.300, 0.157
823.400, 0.172
823.500, 0.162
823.600, 0.160
823.700, 0.141
823.800, 0.141
823.900, 0.168
824.000, 0.160
824.100, 0.155
824.200, 0.145
824.300, 0.152
824.400, 0.169
824.500, 0.198
824.600, 0.185
824.700, 0.168
824.800, 0.168
824.900, 0.157
825.000, 0.159
825.100, 0.169
825.200, 0.159
825.300, 0.160
825.400, 0.180
825.500, 0.154
825.600, 0.161
825.700, 0.170
825.800, 0.171
825.900, 0.163
826.000, 0.187
826.100, 0.192
826.200, 0.180
826.300, 0.161
826.400, 0.175
826.500, 0.166
826.600, 0.177
826.700, 0.181
826.800, 0.173
826.900, 0.160
827.000, 0.186
827.100, 0.171
827.200, 0.181
827.300, 0.165
827.400, 0.168
827.500, 0.180
827.600, 0.194
827.700, 0.147
827.800, 0.156
827.900, 0.180
828.000, 0.181
828.100, 0.182
828.200, 0.162
828.300, 0.167
828.400, 0.169
828.500, 0.196
828.600, 0.187
828.700, 0.189
828.800, 0.179
828.900, 0.208
829.000, 0.192
829.100, 0.183
829.200, 0.151
829.300, 0.146
829.400, 0.166
829.500, 0.182
829.600, 0.199
829.700, 0.179
829.800, 0.163
829.900, 0.188
830.000, 0.185
830.100, 0.162
830.200, 0.150
830.300, 0.178
830.400, 0.164
830.500, 0.178
830.600, 0.159
830.700, 0.127
830.800, 0.144
830.900, 0.163
831.000, 0.156
831.100, 0.160
831.200, 0.172
831.300, 0.165
831.400, 0.176
831.500, 0.174
831.600, 0.160
831.700, 0.147
831.800, 0.156
831.900, 0.156
832.000, 0.153
832.100, 0.179
832.200, 0.166
832.300, 0.163
832.400, 0.153
832.500, 0.188
832.600, 0.156
832.700, 0.150
832.800, 0.145
832.900, 0.166
833.000, 0.144
833.100, 0.148
833.200, 0.154
833.300, 0.144
833.400, 0.138
833.500, 0.167
833.600, 0.159
833.700, 0.154
833.800, 0.176
833.900, 0.152
834.000, 0.174
834.100, 0.163
834.200, 0.168
834.300, 0.158
834.400, 0.175
834.500, 0.176
834.600, 0.154
834.700, 0.152
834.800, 0.169
834.900, 0.174
835.000, 0.151
835.100, 0.157
835.200, 0.184
835.300, 0.166
835.400, 0.159
835.500, 0.177
835.600, 0.156
835.700, 0.154
835.800, 0.153
835.900, 0.175
836.000, 0.181
836.100, 0.153
836.200, 0.150
836.300, 0.136
836.400, 0.155
836.500, 0.153
836.600, 0.158
836.700, 0.175
836.800, 0.174
836.900, 0.148
837.000, 0.163
837.100, 0.161
837.200, 0.228
837.300, 0.218
837.400, 0.229
837.500, 0.216
837.600, 0.216
837.700, 0.205
837.800, 0.178
837.900, 0.167
838.000, 0.163
838.100, 0.179
838.200, 0.171
838.300, 0.181
838.400, 0.171
838.500, 0.166
838.600, 0.181
838.700, 0.167
838.800, 0.158
838.900, 0.166
839.000, 0.171
839.100, 0.178
839.200, 0.180
839.300, 0.160
839.400, 0.164
839.500, 0.176
839.600, 0.173
839.700, 0.167
839.800, 0.172
839.900, 0.157
840.000, 0.162
840.100, 0.172
840.200, 0.170
840.300, 0.153
840.400, 0.170
840.500, 0.173
840.600, 0.175
840.700, 0.159
840.800, 0.163
840.900, 0.155
841.000, 0.182
841.100, 0.162
841.200, 0.164
841.300, 0.141
841.400, 0.177
841.500, 0.152
841.600, 0.160
841.700, 0.172
841.800, 0.173
841.900, 0.168
842.000, 0.173
842.100, 0.164
842.200, 0.160
842.300, 0.178
842.400, 0.168
842.500, 0.172
842.600, 0.170
842.700, 0.162
842.800, 0.167
842.900, 0.146
843.000, 0.162
843.100, 0.152
843.200, 0.171
843.300, 0.152
843.400, 0.152
843.500, 0.143
843.600, 0.142
843.700, 0.178
843.800, 0.186
843.900, 0.164
844.000, 0.169
844.100, 0.161
844.200, 0.156
844.300, 0.180
844.400, 0.167
844.500, 0.181
844.600, 0.190
844.700, 0.182
844.800, 0.154
844.900, 0.179
845.000, 0.176
845.100, 0.156
845.200, 0.139
845.300, 0.156
845.400, 0.133
845.500, 0.142
845.600, 0.166
845.700, 0.169
845.800, 0.159
845.900, 0.157
846.000, 0.178
846.100, 0.174
846.200, 0.159
846.300, 0.148
846.400, 0.175
846.500, 0.178
846.600, 0.169
846.700, 0.153
846.800, 0.141
846.900, 0.158
847.000, 0.162
847.100, 0.156
847.200, 0.159
847.300, 0.151
847.400, 0.142
847.500, 0.153
847.600, 0.155
847.700, 0.160
847.800, 0.151
847.900, 0.144
848.000, 0.145
848.100, 0.142
848.200, 0.149
848.300, 0.157
848.400, 0.154
848.500, 0.144
848.600, 0.165
848.700, 0.179
848.800, 0.146
848.900, 0.172
849.000, 0.142
849.100, 0.162
849.200, 0.177
849.300, 0.169
849.400, 0.145
849.500, 0.163
849.600, 0.153
849.700, 0.169
849.800, 0.141
849.900, 0.146
850.000, 0.139
850.100, 0.170
850.200, 0.145
850.300, 0.153
850.400, 0.158
850.500, 0.134
850.600, 0.159
850.700, 0.151
850.800, 0.157
850.900, 0.159
851.000, 0.155
851.100, 0.176
851.200, 0.153
851.300, 0.163
851.400, 0.151
851.500, 0.151
851.600, 0.148
851.700, 0.138
851.800, 0.134
851.900, 0.160
852.000, 0.135
852.100, 0.151
852.200, 0.143
852.300, 0.152
852.400, 0.173
852.500, 0.165
852.600, 0.171
852.700, 0.169
852.800, 0.137
852.900, 0.143
853.000, 0.139
853.100, 0.136
853.200, 0.154
853.300, 0.140
853.400, 0.136
853.500, 0.138
853.600, 0.144
853.700, 0.134
853.800, 0.161
853.900, 0.156
854.000, 0.153
854.100, 0.150
854.200, 0.157
854.300, 0.144
854.400, 0.152
854.500, 0.142
854.600, 0.158
854.700, 0.140
854.800, 0.131
854.900, 0.154
855.000, 0.150
855.100, 0.146
855.200, 0.140
855.300, 0.145
855.400, 0.151
855.500, 0.136
855.600, 0.157
855.700, 0.149
855.800, 0.118
855.900, 0.131
856.000, 0.152
856.100, 0.164
856.200, 0.139
856.300, 0.142
856.400, 0.128
856.500, 0.118
856.600, 0.116
856.700, 0.128
856.800, 0.144
856.900, 0.148
857.000, 0.138
857.100, 0.145
857.200, 0.149
857.300, 0.136
857.400, 0.128
857.500, 0.148
857.600, 0.159
857.700, 0.139
857.800, 0.125
857.900, 0.149
858.000, 0.138
858.100, 0.139
858.200, 0.130
858.300, 0.154
858.400, 0.149
858.500, 0.137
858.600, 0.139
858.700, 0.159
858.800, 0.160
858.900, 0.169
859.000, 0.162
859.100, 0.167
859.200, 0.154
859.300, 0.158
859.400, 0.160
859.500, 0.154
859.600, 0.141
859.700, 0.180
859.800, 0.149
859.900, 0.133
860.000, 0.143
860.100, 0.125
860.200, 0.135
860.300, 0.115
860.400, 0.121
860.500, 0.121
860.600, 0.135
860.700, 0.142
860.800, 0.136
860.900, 0.112
861.000, 0.119
861.100, 0.129
861.200, 0.124
861.300, 0.150
861.400, 0.149
861.500, 0.142
861.600, 0.138
861.700, 0.139
861.800, 0.158
861.900, 0.148
862.000, 0.156
862.100, 0.151
862.200, 0.144
862.300, 0.152
862.400, 0.144
862.500, 0.166
862.600, 0.147
862.700, 0.152
862.800, 0.176
862.900, 0.197
863.000, 0.186
863.100, 0.145
863.200, 0.151
863.300, 0.161
863.400, 0.154
863.500, 0.185
863.600, 0.196
863.700, 0.203
863.800, 0.170
863.900, 0.170
864.000, 0.147
864.100, 0.136
864.200, 0.158
864.300, 0.143
864.400, 0.150
864.500, 0.145
864.600, 0.132
864.700, 0.143
864.800, 0.153
864.900, 0.160
865.000, 0.169
865.100, 0.148
865.200, 0.138
865.300, 0.139
865.400, 0.153
865.500, 0.139
865.600, 0.162
865.700, 0.146
865.800, 0.163
865.900, 0.142
866.000, 0.142
866.100, 0.148
866.200, 0.147
866.300, 0.148
866.400, 0.154
866.500, 0.138
866.600, 0.137
866.700, 0.144
866.800, 0.165
866.900, 0.154
867.000, 0.189
867.100, 0.148
867.200, 0.119
867.300, 0.133
867.400, 0.143
867.500, 0.127
867.600, 0.144
867.700, 0.129
867.800, 0.139
867.900, 0.137
868.000, 0.146
868.100, 0.140
868.200, 0.148
868.300, 0.145
868.400, 0.148
868.500, 0.136
868.600, 0.147
868.700, 0.150
868.800, 0.163
868.900, 0.149
869.000, 0.167
869.100, 0.173
869.200, 0.150
869.300, 0.160
869.400, 0.159
869.500, 0.148
869.600, 0.139
869.700, 0.156
869.800, 0.162
869.900, 0.134
870.000, 0.133
870.100, 0.148
870.200, 0.142
870.300, 0.146
870.400, 0.146
870.500, 0.139
870.600, 0.143
870.700, 0.134
870.800, 0.155
870.900, 0.149
871.000, 0.133
871.100, 0.130
871.200, 0.131
871.300, 0.162
871.400, 0.166
871.500, 0.168
871.600, 0.150
871.700, 0.173
871.800, 0.144
871.900, 0.131
872.000, 0.132
872.100, 0.152
872.200, 0.183
872.300, 0.161
872.400, 0.193
872.500, 0.203
872.600, 0.186
872.700, 0.178
872.800, 0.177
872.900, 0.171
873.000, 0.170
873.100, 0.152
873.200, 0.147
873.300, 0.146
873.400, 0.127
873.500, 0.162
873.600, 0.146
873.700, 0.129
873.800, 0.153
873.900, 0.165
874.000, 0.149
874.100, 0.163
874.200, 0.180
874.300, 0.184
874.400, 0.171
874.500, 0.186
874.600, 0.179
874.700, 0.141
874.800, 0.162
874.900, 0.164
875.000, 0.131
875.100, 0.154
875.200, 0.157
875.300, 0.163
875.400, 0.129
875.500, 0.125
875.600, 0.138
875.700, 0.150
875.800, 0.146
875.900, 0.142
876.000, 0.155
876.100, 0.170
876.200, 0.171
876.300, 0.162
876.400, 0.165
876.500, 0.157
876.600, 0.170
876.700, 0.177
876.800, 0.175
876.900, 0.151
877.000, 0.153
877.100, 0.173
877.200, 0.152
877.300, 0.158
877.400, 0.137
877.500, 0.142
877.600, 0.135
877.700, 0.134
877.800, 0.130
877.900, 0.116
878.000, 0.176
878.100, 0.140
878.200, 0.134
878.300, 0.133
878.400, 0.150
878.500, 0.130
878.600, 0.146
878.700, 0.138
878.800, 0.141
878.900, 0.136
879.000, 0.138
879.100, 0.132
879.200, 0.132
879.300, 0.194
879.400, 0.144
879.500, 0.157
879.600, 0.175
879.700, 0.157
879.800, 0.146
879.900, 0.159
880.000, 0.151
880.100, 0.126
880.200, 0.136
880.300, 0.150
880.400, 0.154
880.500, 0.143
880.600, 0.145
880.700, 0.157
880.800, 0.185
880.900, 0.174
881.000, 0.158
881.100, 0.154
881.200, 0.146
881.300, 0.152
881.400, 0.156
881.500, 0.157
881.600, 0.148
881.700, 0.166
881.800, 0.168
881.900, 0.155
882.000, 0.164
882.100, 0.152
882.200, 0.166
882.300, 0.153
882.400, 0.163
882.500, 0.140
882.600, 0.153
882.700, 0.149
882.800, 0.149
882.900, 0.169
883.000, 0.164
883.100, 0.154
883.200, 0.148
883.300, 0.153
883.400, 0.143
883.500, 0.140
883.600, 0.164
883.700, 0.164
883.800, 0.142
883.900, 0.176
884.000, 0.158
884.100, 0.162
884.200, 0.160
884.300, 0.160
884.400, 0.144
884.500, 0.174
884.600, 0.179
884.700, 0.147
884.800, 0.170
884.900, 0.157
885.000, 0.138
885.100, 0.150
885.200, 0.191
885.300, 0.139
885.400, 0.125
885.500, 0.129
885.600, 0.143
885.700, 0.127
885.800, 0.130
885.900, 0.139
886.000, 0.157
886.100, 0.154
886.200, 0.164
886.300, 0.173
886.400, 0.143
886.500, 0.158
886.600, 0.159
886.700, 0.161
886.800, 0.155
886.900, 0.150
887.000, 0.164
887.100, 0.150
887.200, 0.138
887.300, 0.156
887.400, 0.177
887.500, 0.180
887.600, 0.211
887.700, 0.224
887.800, 0.202
887.900, 0.185
888.000, 0.187
888.100, 0.207
888.200, 0.211
888.300, 0.204
888.400, 0.172
888.500, 0.167
888.600, 0.141
888.700, 0.131
888.800, 0.165
888.900, 0.181
889.000, 0.157
889.100, 0.179
889.200, 0.152
889.300, 0.164
889.400, 0.163
889.500, 0.170
889.600, 0.153
889.700, 0.156
889.800, 0.164
889.900, 0.148
890.000, 0.146
890.100, 0.173
890.200, 0.168
890.300, 0.170
890.400, 0.191
890.500, 0.155
890.600, 0.174
890.700, 0.174
890.800, 0.167
890.900, 0.174
891.000, 0.158
891.100, 0.151
891.200, 0.144
891.300, 0.146
891.400, 0.151
891.500, 0.159
891.600, 0.184
891.700, 0.167
891.800, 0.167
891.900, 0.167
892.000, 0.155
892.100, 0.146
892.200, 0.146
892.300, 0.150
892.400, 0.154
892.500, 0.138
892.600, 0.163
892.700, 0.159
892.800, 0.163
892.900, 0.140
893.000, 0.150
893.100, 0.142
893.200, 0.138
893.300, 0.131
893.400, 0.155
893.500, 0.151
893.600, 0.180
893.700, 0.159
893.800, 0.186
893.900, 0.160
894.000, 0.160
894.100, 0.160
894.200, 0.170
894.300, 0.171
894.400, 0.152
894.500, 0.151
894.600, 0.180
894.700, 0.170
894.800, 0.151
894.900, 0.127
895.000, 0.141
895.100, 0.153
895.200, 0.170
895.300, 0.147
895.400, 0.161
895.500, 0.144
895.600, 0.165
895.700, 0.162
895.800, 0.170
895.900, 0.165
896.000, 0.137
896.100, 0.130
896.200, 0.113
896.300, 0.115
896.400, 0.151
896.500, 0.150
896.600, 0.137
896.700, 0.136
896.800, 0.143
896.900, 0.122
897.000, 0.159
897.100, 0.151
897.200, 0.151
897.300, 0.150
897.400, 0.181
897.500, 0.171
897.600, 0.168
897.700, 0.136
897.800, 0.148
897.900, 0.153
898.000, 0.152
898.100, 0.168
898.200, 0.148
898.300, 0.142
898.400, 0.148
898.500, 0.151
898.600, 0.136
898.700, 0.161
898.800, 0.145
898.900, 0.155
899.000, 0.148
899.100, 0.167
899.200, 0.162
899.300, 0.173
899.400, 0.173
899.500, 0.166
899.600, 0.170
899.700, 0.146
899.800, 0.131
899.900, 0.148
900.000, 0.139
900.100, 0.136
900.200, 0.121
900.300, 0.149
900.400, 0.126
900.500, 0.120
900.600, 0.130
900.700, 0.147
900.800, 0.133
900.900, 0.107
901.000, 0.125
901.100, 0.140
901.200, 0.144
901.300, 0.150
901.400, 0.147
901.500, 0.138
901.600, 0.154
901.700, 0.132
901.800, 0.134
901.900, 0.181
902.000, 0.167
902.100, 0.178
902.200, 0.172
902.300, 0.176
902.400, 0.187
902.500, 0.192
902.600, 0.179
902.700, 0.156
902.800, 0.169
902.900, 0.146
903.000, 0.147
903.100, 0.148
903.200, 0.140
903.300, 0.139
903.400, 0.137
903.500, 0.137
903.600, 0.149
903.700, 0.143
903.800, 0.153
903.900, 0.145
904.000, 0.146
904.100, 0.167
904.200, 0.180
904.300, 0.168
904.400, 0.172
904.500, 0.162
904.600, 0.166
904.700, 0.180
904.800, 0.186
904.900, 0.183
905.000, 0.187
905.100, 0.199
905.200, 0.193
905.300, 0.168
905.400, 0.204
905.500, 0.183
905.600, 0.174
905.700, 0.176
905.800, 0.193
905.900, 0.176
906.000, 0.206
906.100, 0.203
906.200, 0.190
906.300, 0.205
906.400, 0.178
906.500, 0.191
906.600, 0.196
906.700, 0.166
906.800, 0.164
906.900, 0.166
907.000, 0.172
907.100, 0.177
907.200, 0.174
907.300, 0.149
907.400, 0.137
907.500, 0.164
907.600, 0.175
907.700, 0.174
907.800, 0.178
907.900, 0.172
908.000, 0.165
908.100, 0.185
908.200, 0.181
908.300, 0.170
908.400, 0.194
908.500, 0.179
908.600, 0.183
908.700, 0.185
908.800, 0.182
908.900, 0.177
909.000, 0.180
909.100, 0.165
909.200, 0.174
909.300, 0.165
909.400, 0.185
909.500, 0.161
909.600, 0.147
909.700, 0.162
909.800, 0.154
909.900, 0.153
910.000, 0.154
910.100, 0.186
910.200, 0.149
910.300, 0.140
910.400, 0.175
910.500, 0.161
910.600, 0.152
910.700, 0.145
910.800, 0.129
910.900, 0.156
911.000, 0.138
911.100, 0.131
911.200, 0.157
911.300, 0.185
911.400, 0.176
911.500, 0.178
911.600, 0.161
911.700, 0.156
911.800, 0.179
911.900, 0.151
912.000, 0.170
912.100, 0.176
912.200, 0.157
912.300, 0.173
912.400, 0.165
912.500, 0.144
912.600, 0.162
912.700, 0.150
912.800, 0.139
912.900, 0.156
913.000, 0.135
913.100, 0.151
913.200, 0.147
913.300, 0.161
913.400, 0.134
913.500, 0.130
913.600, 0.138
913.700, 0.143
913.800, 0.163
913.900, 0.160
914.000, 0.155
914.100, 0.167
914.200, 0.172
914.300, 0.152
914.400, 0.131
914.500, 0.145
914.600, 0.134
914.700, 0.138
914.800, 0.147
914.900, 0.165
915.000, 0.129
915.100, 0.152
915.200, 0.152
915.300, 0.138
915.400, 0.131
915.500, 0.159
915.600, 0.143
915.700, 0.156
915.800, 0.155
915.900, 0.168
916.000, 0.139
916.100, 0.142
916.200, 0.142
916.300, 0.126
916.400, 0.159
916.500, 0.147
916.600, 0.165
916.700, 0.159
916.800, 0.146
916.900, 0.162
917.000, 0.139
917.100, 0.131
917.200, 0.147
917.300, 0.138
917.400, 0.149
917.500, 0.161
917.600, 0.163
917.700, 0.151
917.800, 0.142
917.900, 0.146
918.000, 0.129
918.100, 0.122
918.200, 0.154
918.300, 0.150
918.400, 0.157
918.500, 0.158
918.600, 0.142
918.700, 0.134
918.800, 0.149
918.900, 0.172
919.000, 0.143
919.100, 0.135
919.200, 0.147
919.300, 0.148
919.400, 0.132
919.500, 0.182
919.600, 0.162
919.700, 0.157
919.800, 0.163
919.900, 0.168
920.000, 0.181
920.100, 0.176
920.200, 0.163
920.300, 0.166
920.400, 0.179
920.500, 0.183
920.600, 0.176
920.700, 0.186
920.800, 0.169
920.900, 0.166
921.000, 0.203
921.100, 0.212
921.200, 0.194
921.300, 0.184
921.400, 0.166
921.500, 0.181
921.600, 0.199
921.700, 0.172
921.800, 0.180
921.900, 0.196
922.000, 0.183
922.100, 0.153
922.200, 0.161
922.300, 0.148
922.400, 0.166
922.500, 0.186
922.600, 0.189
922.700, 0.184
922.800, 0.182
922.900, 0.193
923.000, 0.179
923.100, 0.175
923.200, 0.162
923.300, 0.179
923.400, 0.171
923.500, 0.159
923.600, 0.168
923.700, 0.170
923.800, 0.175
923.900, 0.177
924.000, 0.180
924.100, 0.164
924.200, 0.167
924.300, 0.145
924.400, 0.161
924.500, 0.173
924.600, 0.174
924.700, 0.161
924.800, 0.162
924.900, 0.163
925.000, 0.157
925.100, 0.141
925.200, 0.152
925.300, 0.171
925.400, 0.169
925.500, 0.162
925.600, 0.151
925.700, 0.157
925.800, 0.167
925.900, 0.159
926.000, 0.158
926.100, 0.166
926.200, 0.163
926.300, 0.142
926.400, 0.178
926.500, 0.172
926.600, 0.138
926.700, 0.162
926.800, 0.162
926.900, 0.157
927.000, 0.152
927.100, 0.160
927.200, 0.153
927.300, 0.155
927.400, 0.164
927.500, 0.186
927.600, 0.175
927.700, 0.144
927.800, 0.150
927.900, 0.143
928.000, 0.148
928.100, 0.161
928.200, 0.157
928.300, 0.155
928.400, 0.140
928.500, 0.130
928.600, 0.159
928.700, 0.162
928.800, 0.170
928.900, 0.148
929.000, 0.140
929.100, 0.154
929.200, 0.146
929.300, 0.171
929.400, 0.174
929.500, 0.150
929.600, 0.145
929.700, 0.138
929.800, 0.158
929.900, 0.175
930.000, 0.135
930.100, 0.154
930.200, 0.162
930.300, 0.148
930.400, 0.146
930.500, 0.159
930.600, 0.160
930.700, 0.164
930.800, 0.129
930.900, 0.161
931.000, 0.152
931.100, 0.187
931.200, 0.169
931.300, 0.158
931.400, 0.171
931.500, 0.159
931.600, 0.169
931.700, 0.149
931.800, 0.161
931.900, 0.162
932.000, 0.153
932.100, 0.172
932.200, 0.138
932.300, 0.145
932.400, 0.143
932.500, 0.149
932.600, 0.142
932.700, 0.157
932.800, 0.132
932.900, 0.132
933.000, 0.152
933.100, 0.173
933.200, 0.146
933.300, 0.139
933.400, 0.137
933.500, 0.153
933.600, 0.131
933.700, 0.158
933.800, 0.179
933.900, 0.147
934.000, 0.145
934.100, 0.143
934.200, 0.166
934.300, 0.142
934.400, 0.151
934.500, 0.181
934.600, 0.168
934.700, 0.184
934.800, 0.214
934.900, 0.149
935.000, 0.150
935.100, 0.163
935.200, 0.181
935.300, 0.163
935.400, 0.141
935.500, 0.148
935.600, 0.145
935.700, 0.174
935.800, 0.145
935.900, 0.151
936.000, 0.160
936.100, 0.127
936.200, 0.154
936.300, 0.155
936.400, 0.155
936.500, 0.163
936.600, 0.156
936.700, 0.152
936.800, 0.144
936.900, 0.149
937.000, 0.145
937.100, 0.150
937.200, 0.136
937.300, 0.157
937.400, 0.135
937.500, 0.153
937.600, 0.164
937.700, 0.140
937.800, 0.134
937.900, 0.128
938.000, 0.117
938.100, 0.140
938.200, 0.137
938.300, 0.139
938.400, 0.151
938.500, 0.135
938.600, 0.151
938.700, 0.152
938.800, 0.155
938.900, 0.138
939.000, 0.155
939.100, 0.173
939.200, 0.152
939.300, 0.159
939.400, 0.140
939.500, 0.139
939.600, 0.151
939.700, 0.160
939.800, 0.176
939.900, 0.181
940.000, 0.167
940.100, 0.143
940.200, 0.153
940.300, 0.176
940.400, 0.185
940.500, 0.140
940.600, 0.144
940.700, 0.141
940.800, 0.158
940.900, 0.150
941.000, 0.144
941.100, 0.147
941.200, 0.150
941.300, 0.130
941.400, 0.165
941.500, 0.178
941.600, 0.186
941.700, 0.180
941.800, 0.172
941.900, 0.171
942.000, 0.142
942.100, 0.143
942.200, 0.136
942.300, 0.166
942.400, 0.147
942.500, 0.153
942.600, 0.142
942.700, 0.143
942.800, 0.147
942.900, 0.135
943.000, 0.141
943.100, 0.148
943.200, 0.156
943.300, 0.154
943.400, 0.117
943.500, 0.158
943.600, 0.156
943.700, 0.167
943.800, 0.168
943.900, 0.142
944.000, 0.171
944.100, 0.150
944.200, 0.152
944.300, 0.175
944.400, 0.170
944.500, 0.184
944.600, 0.179
944.700, 0.172
944.800, 0.169
944.900, 0.176
945.000, 0.173
945.100, 0.156
945.200, 0.155
945.300, 0.148
945.400, 0.144
945.500, 0.146
945.600, 0.134
945.700, 0.146
945.800, 0.138
945.900, 0.134
946.000, 0.133
946.100, 0.158
946.200, 0.130
946.300, 0.129
946.400, 0.130
946.500, 0.145
946.600, 0.134
946.700, 0.147
946.800, 0.129
946.900, 0.130
947.000, 0.168
947.100, 0.153
947.200, 0.130
947.300, 0.129
947.400, 0.143
947.500, 0.147
947.600, 0.159
947.700, 0.150
947.800, 0.153
947.900, 0.130
948.000, 0.149
948.100, 0.131
948.200, 0.165
948.300, 0.129
948.400, 0.132
948.500, 0.131
948.600, 0.130
948.700, 0.128
948.800, 0.133
948.900, 0.137
949.000, 0.146
949.100, 0.132
949.200, 0.127
949.300, 0.129
949.400, 0.146
949.500, 0.150
949.600, 0.164
949.700, 0.146
949.800, 0.147
949.900, 0.122
950.000, 0.136
950.100, 0.141
950.200, 0.134
950.300, 0.124
950.400, 0.136
950.500, 0.133
950.600, 0.115
950.700, 0.133
950.800, 0.126
950.900, 0.126
951.000, 0.115
951.100, 0.151
951.200, 0.148
951.300, 0.155
951.400, 0.129
951.500, 0.131
951.600, 0.135
951.700, 0.141
951.800, 0.154
951.900, 0.148
952.000, 0.160
952.100, 0.137
952.200, 0.150
952.300, 0.159
952.400, 0.142
952.500, 0.174
952.600, 0.144
952.700, 0.157
952.800, 0.165
952.900, 0.145
953.000, 0.136
953.100, 0.133
953.200, 0.111
953.300, 0.154
953.400, 0.140
953.500, 0.132
953.600, 0.146
953.700, 0.140
953.800, 0.128
953.900, 0.136
954.000, 0.130
954.100, 0.110
954.200, 0.127
954.300, 0.135
954.400, 0.137
954.500, 0.133
954.600, 0.144
954.700, 0.142
954.800, 0.167
954.900, 0.136
955.000, 0.137
955.100, 0.147
955.200, 0.127
955.300, 0.120
955.400, 0.113
955.500, 0.112
955.600, 0.110
955.700, 0.118
955.800, 0.140
955.900, 0.114
956.000, 0.131
956.100, 0.139
956.200, 0.165
956.300, 0.134
956.400, 0.118
956.500, 0.120
956.600, 0.169
956.700, 0.176
956.800, 0.161
956.900, 0.162
957.000, 0.150
957.100, 0.135
957.200, 0.130
957.300, 0.149
957.400, 0.142
957.500, 0.161
957.600, 0.136
957.700, 0.138
957.800, 0.119
957.900, 0.132
958.000, 0.131
958.100, 0.139
958.200, 0.153
958.300, 0.128
958.400, 0.145
958.500, 0.162
958.600, 0.158
958.700, 0.124
958.800, 0.126
958.900, 0.119
959.000, 0.136
959.100, 0.166
959.200, 0.160
959.300, 0.129
959.400, 0.136
959.500, 0.142
959.600, 0.138
959.700, 0.139
959.800, 0.154
959.900, 0.131
960.000, 0.170
960.100, 0.135
960.200, 0.148
960.300, 0.138
960.400, 0.162
960.500, 0.153
960.600, 0.136
960.700, 0.141
960.800, 0.146
960.900, 0.159
961.000, 0.141
961.100, 0.166
961.200, 0.132
961.300, 0.102
961.400, 0.119
961.500, 0.111
961.600, 0.120
961.700, 0.147
961.800, 0.130
961.900, 0.128
962.000, 0.125
962.100, 0.132
962.200, 0.155
962.300, 0.156
962.400, 0.131
962.500, 0.153
962.600, 0.164
962.700, 0.129
962.800, 0.146
962.900, 0.132
963.000, 0.132
963.100, 0.162
963.200, 0.152
963.300, 0.159
963.400, 0.158
963.500, 0.142
963.600, 0.128
963.700, 0.147
963.800, 0.137
963.900, 0.139
964.000, 0.145
964.100, 0.152
964.200, 0.153
964.300, 0.142
964.400, 0.140
964.500, 0.132
964.600, 0.121
964.700, 0.125
964.800, 0.142
964.900, 0.131
965.000, 0.138
965.100, 0.147
965.200, 0.130
965.300, 0.172
965.400, 0.145
965.500, 0.146
965.600, 0.137
965.700, 0.135
965.800, 0.117
965.900, 0.140
966.000, 0.134
966.100, 0.140
966.200, 0.137
966.300, 0.162
966.400, 0.158
966.500, 0.172
966.600, 0.182
966.700, 0.159
966.800, 0.177
966.900, 0.163
967.000, 0.145
967.100, 0.144
967.200, 0.161
967.300, 0.155
967.400, 0.159
967.500, 0.155
967.600, 0.146
967.700, 0.127
967.800, 0.134
967.900, 0.124
968.000, 0.139
968.100, 0.137
968.200, 0.129
968.300, 0.143
968.400, 0.144
968.500, 0.139
968.600, 0.130
968.700, 0.127
968.800, 0.128
968.900, 0.125
969.000, 0.120
969.100, 0.117
969.200, 0.134
969.300, 0.126
969.400, 0.144
969.500, 0.125
969.600, 0.117
969.700, 0.112
969.800, 0.115
969.900, 0.130
970.000, 0.166
970.100, 0.158
970.200, 0.122
970.300, 0.132
970.400, 0.122
970.500, 0.121
970.600, 0.132
970.700, 0.146
970.800, 0.135
970.900, 0.144
971.000, 0.159
971.100, 0.156
971.200, 0.138
971.300, 0.132
971.400, 0.139
971.500, 0.155
971.600, 0.187
971.700, 0.174
971.800, 0.145
971.900, 0.165
972.000, 0.162
972.100, 0.151
972.200, 0.131
972.300, 0.143
972.400, 0.151
972.500, 0.137
972.600, 0.137
972.700, 0.147
972.800, 0.132
972.900, 0.117
973.000, 0.121
973.100, 0.135
973.200, 0.131
973.300, 0.132
973.400, 0.132
973.500, 0.128
973.600, 0.127
973.700, 0.139
973.800, 0.131
973.900, 0.135
974.000, 0.120
974.100, 0.125
974.200, 0.137
974.300, 0.125
974.400, 0.130
974.500, 0.128
974.600, 0.129
974.700, 0.126
974.800, 0.132
974.900, 0.117
975.000, 0.128
975.100, 0.150
975.200, 0.129
975.300, 0.136
975.400, 0.118
975.500, 0.128
975.600, 0.136
975.700, 0.132
975.800, 0.139
975.900, 0.136
976.000, 0.131
976.100, 0.127
976.200, 0.112
976.300, 0.127
976.400, 0.131
976.500, 0.152
976.600, 0.146
976.700, 0.146
976.800, 0.171
976.900, 0.154
977.000, 0.139
977.100, 0.165
977.200, 0.169
977.300, 0.161
977.400, 0.156
977.500, 0.143
977.600, 0.176
977.700, 0.167
977.800, 0.153
977.900, 0.146
978.000, 0.149
978.100, 0.146
978.200, 0.146
978.300, 0.144
978.400, 0.170
978.500, 0.169
978.600, 0.146
978.700, 0.151
978.800, 0.154
978.900, 0.167
979.000, 0.156
979.100, 0.141
979.200, 0.160
979.300, 0.169
979.400, 0.175
979.500, 0.184
979.600, 0.160
979.700, 0.160
979.800, 0.160
979.900, 0.161
980.000, 0.163
980.100, 0.174
980.200, 0.185
980.300, 0.211
980.400, 0.170
980.500, 0.161
980.600, 0.190
980.700, 0.175
980.800, 0.162
980.900, 0.158
981.000, 0.170
981.100, 0.141
981.200, 0.150
981.300, 0.147
981.400, 0.145
981.500, 0.166
981.600, 0.135
981.700, 0.161
981.800, 0.134
981.900, 0.124
982.000, 0.114
982.100, 0.116
982.200, 0.135
982.300, 0.123
982.400, 0.140
982.500, 0.122
982.600, 0.139
982.700, 0.163
982.800, 0.135
982.900, 0.155
983.000, 0.133
983.100, 0.136
983.200, 0.132
983.300, 0.151
983.400, 0.120
983.500, 0.121
983.600, 0.131
983.700, 0.144
983.800, 0.117
983.900, 0.133
984.000, 0.120
984.100, 0.144
984.200, 0.125
984.300, 0.131
984.400, 0.118
984.500, 0.121
984.600, 0.138
984.700, 0.131
984.800, 0.139
984.900, 0.143
985.000, 0.148
985.100, 0.149
985.200, 0.154
985.300, 0.126
985.400, 0.133
985.500, 0.137
985.600, 0.118
985.700, 0.123
985.800, 0.140
985.900, 0.121
986.000, 0.137
986.100, 0.130
986.200, 0.131
986.300, 0.138
986.400, 0.134
986.500, 0.159
986.600, 0.166
986.700, 0.142
986.800, 0.141
986.900, 0.132
987.000, 0.138
987.100, 0.132
987.200, 0.109
987.300, 0.132
987.400, 0.131
987.500, 0.126
987.600, 0.140
987.700, 0.144
987.800, 0.165
987.900, 0.145
988.000, 0.134
988.100, 0.167
988.200, 0.145
988.300, 0.129
988.400, 0.142
988.500, 0.145
988.600, 0.153
988.700, 0.178
988.800, 0.147
988.900, 0.157
989.000, 0.147
989.100, 0.128
989.200, 0.126
989.300, 0.157
989.400, 0.129
989.500, 0.134
989.600, 0.113
989.700, 0.129
989.800, 0.152
989.900, 0.148
990.000, 0.145
990.100, 0.143
990.200, 0.128
990.300, 0.133
990.400, 0.141
990.500, 0.144
990.600, 0.130
990.700, 0.111
990.800, 0.121
990.900, 0.108
991.000, 0.106
991.100, 0.123
991.200, 0.128
991.300, 0.121
991.400, 0.112
991.500, 0.137
991.600, 0.153
991.700, 0.141
991.800, 0.126
991.900, 0.112
992.000, 0.094
992.100, 0.128
992.200, 0.121
992.300, 0.152
992.400, 0.118
992.500, 0.130
992.600, 0.112
992.700, 0.124
992.800, 0.142
992.900, 0.152
993.000, 0.166
993.100, 0.130
993.200, 0.143
993.300, 0.137
993.400, 0.128
993.500, 0.145
993.600, 0.141
993.700, 0.122
993.800, 0.132
993.900, 0.129
994.000, 0.114
994.100, 0.164
994.200, 0.135
994.300, 0.166
994.400, 0.144
994.500, 0.135
994.600, 0.129
994.700, 0.108
994.800, 0.142
994.900, 0.154
995.000, 0.150
995.100, 0.149
995.200, 0.140
995.300, 0.145
995.400, 0.148
995.500, 0.160
995.600, 0.148
995.700, 0.154
995.800, 0.184
995.900, 0.148
996.000, 0.136
996.100, 0.172
996.200, 0.154
996.300, 0.174
996.400, 0.178
996.500, 0.180
996.600, 0.171
996.700, 0.188
996.800, 0.157
996.900, 0.165
997.000, 0.171
997.100, 0.155
997.200, 0.155
997.300, 0.169
997.400, 0.139
997.500, 0.150
997.600, 0.150
997.700, 0.156
997.800, 0.125
997.900, 0.162
998.000, 0.140
998.100, 0.149
998.200, 0.141
998.300, 0.130
998.400, 0.131
998.500, 0.142
998.600, 0.176
998.700, 0.142
998.800, 0.136
998.900, 0.149
999.000, 0.151
999.100, 0.137
999.200, 0.104
999.300, 0.087
999.400, 0.127
999.500, 0.126
999.600, 0.087
999.700, 0.092
999.800, 0.077
999.900, 0.009
1000.000, 0.001
