Time (ps), RMSD (nm)
0.000, 0.001
0.100, 0.253
0.200, 0.286
0.300, 0.239
0.400, 0.263
0.500, 0.239
0.600, 0.268
0.700, 0.232
0.800, 0.270
0.900, 0.247
1.000, 0.250
1.100, 0.246
1.200, 0.253
1.300, 0.253
1.400, 0.227
1.500, 0.255
1.600, 0.264
1.700, 0.255
1.800, 0.208
1.900, 0.233
2.000, 0.243
2.100, 0.225
2.200, 0.238
2.300, 0.246
2.400, 0.271
2.500, 0.257
2.600, 0.278
2.700, 0.271
2.800, 0.237
2.900, 0.248
3.000, 0.231
3.100, 0.223
3.200, 0.232
3.300, 0.219
3.400, 0.222
3.500, 0.252
3.600, 0.256
3.700, 0.246
3.800, 0.230
3.900, 0.250
4.000, 0.235
4.100, 0.240
4.200, 0.242
4.300, 0.238
4.400, 0.240
4.500, 0.250
4.600, 0.254
4.700, 0.215
4.800, 0.204
4.900, 0.214
5.000, 0.203
5.100, 0.212
5.200, 0.202
5.300, 0.227
5.400, 0.235
5.500, 0.253
5.600, 0.227
5.700, 0.217
5.800, 0.225
5.900, 0.223
6.000, 0.198
6.100, 0.185
6.200, 0.169
6.300, 0.160
6.400, 0.195
6.500, 0.187
6.600, 0.186
6.700, 0.182
6.800, 0.210
6.900, 0.201
7.000, 0.230
7.100, 0.225
7.200, 0.204
7.300, 0.180
7.400, 0.191
7.500, 0.226
7.600, 0.200
7.700, 0.189
7.800, 0.204
7.900, 0.203
8.000, 0.197
8.100, 0.238
8.200, 0.213
8.300, 0.210
8.400, 0.213
8.500, 0.192
8.600, 0.181
8.700, 0.182
8.800, 0.178
8.900, 0.203
9.000, 0.206
9.100, 0.232
9.200, 0.189
9.300, 0.209
9.400, 0.201
9.500, 0.201
9.600, 0.185
9.700, 0.208
9.800, 0.191
9.900, 0.190
10.000, 0.259
10.100, 0.238
10.200, 0.224
10.300, 0.220
10.400, 0.236
10.500, 0.215
10.600, 0.196
10.700, 0.224
10.800, 0.216
10.900, 0.215
11.000, 0.240
11.100, 0.202
11.200, 0.211
11.300, 0.192
11.400, 0.182
11.500, 0.207
11.600, 0.197
11.700, 0.217
11.800, 0.186
11.900, 0.191
12.000, 0.210
12.100, 0.205
12.200, 0.191
12.300, 0.226
12.400, 0.217
12.500, 0.211
12.600, 0.222
12.700, 0.218
12.800, 0.222
12.900, 0.182
13.000, 0.177
13.100, 0.219
13.200, 0.198
13.300, 0.206
13.400, 0.222
13.500, 0.208
13.600, 0.193
13.700, 0.175
13.800, 0.187
13.900, 0.200
14.000, 0.182
14.100, 0.162
14.200, 0.170
14.300, 0.209
14.400, 0.203
14.500, 0.183
14.600, 0.211
14.700, 0.213
14.800, 0.191
14.900, 0.202
15.000, 0.191
15.100, 0.155
15.200, 0.178
15.300, 0.190
15.400, 0.156
15.500, 0.177
15.600, 0.181
15.700, 0.172
15.800, 0.188
15.900, 0.209
16.000, 0.173
16.100, 0.196
16.200, 0.187
16.300, 0.209
16.400, 0.172
16.500, 0.207
16.600, 0.146
16.700, 0.174
16.800, 0.167
16.900, 0.164
17.000, 0.202
17.100, 0.200
17.200, 0.199
17.300, 0.219
17.400, 0.202
17.500, 0.179
17.600, 0.189
17.700, 0.185
17.800, 0.200
17.900, 0.149
18.000, 0.177
18.100, 0.183
18.200, 0.165
18.300, 0.186
18.400, 0.168
18.500, 0.163
18.600, 0.185
18.700, 0.178
18.800, 0.175
18.900, 0.198
19.000, 0.187
19.100, 0.167
19.200, 0.186
19.300, 0.181
19.400, 0.179
19.500, 0.182
19.600, 0.169
19.700, 0.197
19.800, 0.180
19.900, 0.198
20.000, 0.185
20.100, 0.209
20.200, 0.167
20.300, 0.176
20.400, 0.178
20.500, 0.163
20.600, 0.181
20.700, 0.175
20.800, 0.177
20.900, 0.220
21.000, 0.210
21.100, 0.189
21.200, 0.188
21.300, 0.204
21.400, 0.190
21.500, 0.208
21.600, 0.218
21.700, 0.208
21.800, 0.173
21.900, 0.213
22.000, 0.187
22.100, 0.184
22.200, 0.178
22.300, 0.174
22.400, 0.169
22.500, 0.159
22.600, 0.187
22.700, 0.137
22.800, 0.170
22.900, 0.190
23.000, 0.192
23.100, 0.171
23.200, 0.179
23.300, 0.163
23.400, 0.181
23.500, 0.190
23.600, 0.175
23.700, 0.176
23.800, 0.192
23.900, 0.220
24.000, 0.209
24.100, 0.195
24.200, 0.170
24.300, 0.209
24.400, 0.164
24.500, 0.188
24.600, 0.193
24.700, 0.219
24.800, 0.214
24.900, 0.185
25.000, 0.189
25.100, 0.179
25.200, 0.205
25.300, 0.197
25.400, 0.186
25.500, 0.202
25.600, 0.197
25.700, 0.200
25.800, 0.211
25.900, 0.231
26.000, 0.199
26.100, 0.190
26.200, 0.164
26.300, 0.188
26.400, 0.186
26.500, 0.178
26.600, 0.189
26.700, 0.170
26.800, 0.204
26.900, 0.191
27.000, 0.186
27.100, 0.209
27.200, 0.184
27.300, 0.181
27.400, 0.192
27.500, 0.193
27.600, 0.176
27.700, 0.162
27.800, 0.156
27.900, 0.177
28.000, 0.161
28.100, 0.169
28.200, 0.178
28.300, 0.201
28.400, 0.190
28.500, 0.187
28.600, 0.200
28.700, 0.181
28.800, 0.242
28.900, 0.218
29.000, 0.191
29.100, 0.196
29.200, 0.191
29.300, 0.194
29.400, 0.167
29.500, 0.171
29.600, 0.176
29.700, 0.155
29.800, 0.168
29.900, 0.180
30.000, 0.192
30.100, 0.167
30.200, 0.167
30.300, 0.169
30.400, 0.205
30.500, 0.171
30.600, 0.161
30.700, 0.189
30.800, 0.195
30.900, 0.166
31.000, 0.177
31.100, 0.179
31.200, 0.217
31.300, 0.205
31.400, 0.190
31.500, 0.211
31.600, 0.210
31.700, 0.195
31.800, 0.194
31.900, 0.181
32.000, 0.225
32.100, 0.191
32.200, 0.199
32.300, 0.171
32.400, 0.180
32.500, 0.195
32.600, 0.194
32.700, 0.202
32.800, 0.160
32.900, 0.197
33.000, 0.184
33.100, 0.171
33.200, 0.208
33.300, 0.191
33.400, 0.163
33.500, 0.190
33.600, 0.197
33.700, 0.221
33.800, 0.179
33.900, 0.187
34.000, 0.216
34.100, 0.268
34.200, 0.200
34.300, 0.223
34.400, 0.220
34.500, 0.254
34.600, 0.239
34.700, 0.234
34.800, 0.238
34.900, 0.218
35.000, 0.217
35.100, 0.247
35.200, 0.247
35.300, 0.229
35.400, 0.202
35.500, 0.206
35.600, 0.206
35.700, 0.194
35.800, 0.178
35.900, 0.201
36.000, 0.173
36.100, 0.187
36.200, 0.178
36.300, 0.184
36.400, 0.163
36.500, 0.156
36.600, 0.173
36.700, 0.139
36.800, 0.193
36.900, 0.183
37.000, 0.177
37.100, 0.180
37.200, 0.184
37.300, 0.211
37.400, 0.222
37.500, 0.202
37.600, 0.204
37.700, 0.208
37.800, 0.209
37.900, 0.182
38.000, 0.198
38.100, 0.196
38.200, 0.189
38.300, 0.201
38.400, 0.191
38.500, 0.157
38.600, 0.180
38.700, 0.204
38.800, 0.193
38.900, 0.250
39.000, 0.200
39.100, 0.192
39.200, 0.214
39.300, 0.219
39.400, 0.207
39.500, 0.172
39.600, 0.215
39.700, 0.231
39.800, 0.209
39.900, 0.174
40.000, 0.170
40.100, 0.164
40.200, 0.177
40.300, 0.178
40.400, 0.179
40.500, 0.207
40.600, 0.199
40.700, 0.225
40.800, 0.210
40.900, 0.183
41.000, 0.183
41.100, 0.205
41.200, 0.181
41.300, 0.197
41.400, 0.194
41.500, 0.183
41.600, 0.192
41.700, 0.180
41.800, 0.173
41.900, 0.192
42.000, 0.197
42.100, 0.194
42.200, 0.193
42.300, 0.182
42.400, 0.187
42.500, 0.200
42.600, 0.188
42.700, 0.200
42.800, 0.179
42.900, 0.205
43.000, 0.188
43.100, 0.214
43.200, 0.183
43.300, 0.204
43.400, 0.193
43.500, 0.210
43.600, 0.211
43.700, 0.209
43.800, 0.199
43.900, 0.192
44.000, 0.214
44.100, 0.218
44.200, 0.183
44.300, 0.195
44.400, 0.251
44.500, 0.178
44.600, 0.180
44.700, 0.162
44.800, 0.154
44.900, 0.193
45.000, 0.161
45.100, 0.173
45.200, 0.171
45.300, 0.150
45.400, 0.178
45.500, 0.188
45.600, 0.184
45.700, 0.183
45.800, 0.184
45.900, 0.220
46.000, 0.210
46.100, 0.175
46.200, 0.155
46.300, 0.195
46.400, 0.185
46.500, 0.183
46.600, 0.213
46.700, 0.217
46.800, 0.216
46.900, 0.195
47.000, 0.213
47.100, 0.184
47.200, 0.215
47.300, 0.203
47.400, 0.225
47.500, 0.213
47.600, 0.181
47.700, 0.254
47.800, 0.216
47.900, 0.234
48.000, 0.212
48.100, 0.233
48.200, 0.229
48.300, 0.197
48.400, 0.240
48.500, 0.193
48.600, 0.178
48.700, 0.224
48.800, 0.233
48.900, 0.215
49.000, 0.193
49.100, 0.189
49.200, 0.217
49.300, 0.182
49.400, 0.216
49.500, 0.238
49.600, 0.206
49.700, 0.199
49.800, 0.231
49.900, 0.202
50.000, 0.205
50.100, 0.220
50.200, 0.204
50.300, 0.204
50.400, 0.177
50.500, 0.218
50.600, 0.200
50.700, 0.177
50.800, 0.187
50.900, 0.198
51.000, 0.190
51.100, 0.160
51.200, 0.177
51.300, 0.185
51.400, 0.185
51.500, 0.174
51.600, 0.164
51.700, 0.196
51.800, 0.221
51.900, 0.212
52.000, 0.206
52.100, 0.222
52.200, 0.251
52.300, 0.232
52.400, 0.208
52.500, 0.204
52.600, 0.207
52.700, 0.207
52.800, 0.197
52.900, 0.184
53.000, 0.196
53.100, 0.203
53.200, 0.200
53.300, 0.199
53.400, 0.182
53.500, 0.189
53.600, 0.172
53.700, 0.184
53.800, 0.200
53.900, 0.144
54.000, 0.150
54.100, 0.141
54.200, 0.175
54.300, 0.139
54.400, 0.153
54.500, 0.141
54.600, 0.156
54.700, 0.179
54.800, 0.168
54.900, 0.200
55.000, 0.209
55.100, 0.192
55.200, 0.182
55.300, 0.179
55.400, 0.168
55.500, 0.175
55.600, 0.193
55.700, 0.201
55.800, 0.185
55.900, 0.162
56.000, 0.212
56.100, 0.171
56.200, 0.174
56.300, 0.151
56.400, 0.165
56.500, 0.187
56.600, 0.194
56.700, 0.204
56.800, 0.212
56.900, 0.203
57.000, 0.177
57.100, 0.188
57.200, 0.163
57.300, 0.177
57.400, 0.187
57.500, 0.175
57.600, 0.180
57.700, 0.192
57.800, 0.178
57.900, 0.187
58.000, 0.179
58.100, 0.171
58.200, 0.202
58.300, 0.159
58.400, 0.151
58.500, 0.190
58.600, 0.172
58.700, 0.201
58.800, 0.184
58.900, 0.198
59.000, 0.176
59.100, 0.169
59.200, 0.172
59.300, 0.195
59.400, 0.189
59.500, 0.160
59.600, 0.179
59.700, 0.199
59.800, 0.209
59.900, 0.176
60.000, 0.177
60.100, 0.179
60.200, 0.158
60.300, 0.207
60.400, 0.151
60.500, 0.166
60.600, 0.173
60.700, 0.169
60.800, 0.173
60.900, 0.150
61.000, 0.151
61.100, 0.172
61.200, 0.191
61.300, 0.200
61.400, 0.185
61.500, 0.178
61.600, 0.181
61.700, 0.161
61.800, 0.176
61.900, 0.191
62.000, 0.178
62.100, 0.196
62.200, 0.183
62.300, 0.173
62.400, 0.173
62.500, 0.194
62.600, 0.175
62.700, 0.188
62.800, 0.201
62.900, 0.205
63.000, 0.184
63.100, 0.189
63.200, 0.218
63.300, 0.197
63.400, 0.214
63.500, 0.206
63.600, 0.245
63.700, 0.238
63.800, 0.241
63.900, 0.230
64.000, 0.214
64.100, 0.220
64.200, 0.159
64.300, 0.196
64.400, 0.199
64.500, 0.205
64.600, 0.244
64.700, 0.180
64.800, 0.204
64.900, 0.215
65.000, 0.201
65.100, 0.185
65.200, 0.185
65.300, 0.203
65.400, 0.214
65.500, 0.217
65.600, 0.233
65.700, 0.257
65.800, 0.216
65.900, 0.230
66.000, 0.237
66.100, 0.271
66.200, 0.263
66.300, 0.221
66.400, 0.206
66.500, 0.223
66.600, 0.230
66.700, 0.224
66.800, 0.204
66.900, 0.227
67.000, 0.186
67.100, 0.216
67.200, 0.201
67.300, 0.231
67.400, 0.234
67.500, 0.202
67.600, 0.193
67.700, 0.197
67.800, 0.194
67.900, 0.163
68.000, 0.173
68.100, 0.195
68.200, 0.207
68.300, 0.203
68.400, 0.239
68.500, 0.221
68.600, 0.200
68.700, 0.175
68.800, 0.208
68.900, 0.192
69.000, 0.205
69.100, 0.166
69.200, 0.187
69.300, 0.173
69.400, 0.195
69.500, 0.193
69.600, 0.179
69.700, 0.208
69.800, 0.208
69.900, 0.220
70.000, 0.242
70.100, 0.214
70.200, 0.245
70.300, 0.184
70.400, 0.180
70.500, 0.207
70.600, 0.208
70.700, 0.230
70.800, 0.206
70.900, 0.195
71.000, 0.225
71.100, 0.194
71.200, 0.233
71.300, 0.199
71.400, 0.213
71.500, 0.210
71.600, 0.211
71.700, 0.206
71.800, 0.195
71.900, 0.215
72.000, 0.219
72.100, 0.221
72.200, 0.235
72.300, 0.219
72.400, 0.213
72.500, 0.216
72.600, 0.193
72.700, 0.201
72.800, 0.207
72.900, 0.193
73.000, 0.208
73.100, 0.201
73.200, 0.227
73.300, 0.209
73.400, 0.221
73.500, 0.214
73.600, 0.215
73.700, 0.212
73.800, 0.199
73.900, 0.216
74.000, 0.203
74.100, 0.228
74.200, 0.255
74.300, 0.220
74.400, 0.213
74.500, 0.241
74.600, 0.204
74.700, 0.216
74.800, 0.244
74.900, 0.289
75.000, 0.268
75.100, 0.251
75.200, 0.245
75.300, 0.223
75.400, 0.221
75.500, 0.208
75.600, 0.226
75.700, 0.201
75.800, 0.222
75.900, 0.230
76.000, 0.217
76.100, 0.215
76.200, 0.242
76.300, 0.238
76.400, 0.201
76.500, 0.195
76.600, 0.213
76.700, 0.201
76.800, 0.188
76.900, 0.187
77.000, 0.193
77.100, 0.200
77.200, 0.218
77.300, 0.229
77.400, 0.228
77.500, 0.228
77.600, 0.241
77.700, 0.201
77.800, 0.239
77.900, 0.218
78.000, 0.227
78.100, 0.201
78.200, 0.218
78.300, 0.250
78.400, 0.238
78.500, 0.225
78.600, 0.201
78.700, 0.219
78.800, 0.217
78.900, 0.221
79.000, 0.217
79.100, 0.218
79.200, 0.216
79.300, 0.189
79.400, 0.233
79.500, 0.209
79.600, 0.213
79.700, 0.203
79.800, 0.211
79.900, 0.217
80.000, 0.193
80.100, 0.205
80.200, 0.181
80.300, 0.206
80.400, 0.205
80.500, 0.197
80.600, 0.203
80.700, 0.192
80.800, 0.216
80.900, 0.224
81.000, 0.215
81.100, 0.197
81.200, 0.187
81.300, 0.184
81.400, 0.183
81.500, 0.185
81.600, 0.172
81.700, 0.210
81.800, 0.204
81.900, 0.201
82.000, 0.183
82.100, 0.198
82.200, 0.199
82.300, 0.187
82.400, 0.189
82.500, 0.190
82.600, 0.159
82.700, 0.193
82.800, 0.176
82.900, 0.180
83.000, 0.181
83.100, 0.193
83.200, 0.178
83.300, 0.197
83.400, 0.221
83.500, 0.215
83.600, 0.204
83.700, 0.204
83.800, 0.210
83.900, 0.235
84.000, 0.214
84.100, 0.199
84.200, 0.216
84.300, 0.214
84.400, 0.219
84.500, 0.201
84.600, 0.207
84.700, 0.247
84.800, 0.255
84.900, 0.232
85.000, 0.182
85.100, 0.239
85.200, 0.207
85.300, 0.213
85.400, 0.246
85.500, 0.258
85.600, 0.204
85.700, 0.196
85.800, 0.207
85.900, 0.190
86.000, 0.222
86.100, 0.239
86.200, 0.251
86.300, 0.230
86.400, 0.225
86.500, 0.220
86.600, 0.197
86.700, 0.214
86.800, 0.225
86.900, 0.214
87.000, 0.217
87.100, 0.211
87.200, 0.217
87.300, 0.231
87.400, 0.200
87.500, 0.199
87.600, 0.244
87.700, 0.231
87.800, 0.217
87.900, 0.205
88.000, 0.207
88.100, 0.221
88.200, 0.190
88.300, 0.190
88.400, 0.209
88.500, 0.220
88.600, 0.210
88.700, 0.228
88.800, 0.201
88.900, 0.238
89.000, 0.219
89.100, 0.207
89.200, 0.215
89.300, 0.219
89.400, 0.233
89.500, 0.212
89.600, 0.256
89.700, 0.190
89.800, 0.190
89.900, 0.181
90.000, 0.203
90.100, 0.181
90.200, 0.175
90.300, 0.192
90.400, 0.167
90.500, 0.124
90.600, 0.145
90.700, 0.136
90.800, 0.140
90.900, 0.188
91.000, 0.190
91.100, 0.194
91.200, 0.178
91.300, 0.153
91.400, 0.131
91.500, 0.150
91.600, 0.147
91.700, 0.148
91.800, 0.144
91.900, 0.149
92.000, 0.158
92.100, 0.159
92.200, 0.134
92.300, 0.182
92.400, 0.137
92.500, 0.136
92.600, 0.138
92.700, 0.146
92.800, 0.144
92.900, 0.165
93.000, 0.169
93.100, 0.168
93.200, 0.182
93.300, 0.166
93.400, 0.187
93.500, 0.157
93.600, 0.171
93.700, 0.155
93.800, 0.166
93.900, 0.180
94.000, 0.169
94.100, 0.176
94.200, 0.178
94.300, 0.206
94.400, 0.190
94.500, 0.185
94.600, 0.185
94.700, 0.214
94.800, 0.170
94.900, 0.181
95.000, 0.170
95.100, 0.194
95.200, 0.170
95.300, 0.160
95.400, 0.172
95.500, 0.158
95.600, 0.155
95.700, 0.204
95.800, 0.154
95.900, 0.167
96.000, 0.187
96.100, 0.194
96.200, 0.188
96.300, 0.189
96.400, 0.175
96.500, 0.164
96.600, 0.190
96.700, 0.206
96.800, 0.193
96.900, 0.201
97.000, 0.221
97.100, 0.194
97.200, 0.216
97.300, 0.177
97.400, 0.228
97.500, 0.238
97.600, 0.248
97.700, 0.221
97.800, 0.210
97.900, 0.177
98.000, 0.206
98.100, 0.182
98.200, 0.206
98.300, 0.203
98.400, 0.246
98.500, 0.236
98.600, 0.193
98.700, 0.193
98.800, 0.214
98.900, 0.210
99.000, 0.193
99.100, 0.214
99.200, 0.196
99.300, 0.202
99.400, 0.211
99.500, 0.217
99.600, 0.218
99.700, 0.222
99.800, 0.262
99.900, 0.238
100.000, 0.243
100.100, 0.228
100.200, 0.234
100.300, 0.248
100.400, 0.276
100.500, 0.246
100.600, 0.259
100.700, 0.261
100.800, 0.257
100.900, 0.210
101.000, 0.257
101.100, 0.245
101.200, 0.275
101.300, 0.244
101.400, 0.220
101.500, 0.191
101.600, 0.233
101.700, 0.206
101.800, 0.210
101.900, 0.213
102.000, 0.220
102.100, 0.228
102.200, 0.258
102.300, 0.246
102.400, 0.244
102.500, 0.214
102.600, 0.237
102.700, 0.242
102.800, 0.232
102.900, 0.214
103.000, 0.207
103.100, 0.212
103.200, 0.221
103.300, 0.227
103.400, 0.233
103.500, 0.233
103.600, 0.234
103.700, 0.213
103.800, 0.215
103.900, 0.236
104.000, 0.246
104.100, 0.266
104.200, 0.222
104.300, 0.239
104.400, 0.254
104.500, 0.233
104.600, 0.253
104.700, 0.243
104.800, 0.215
104.900, 0.208
105.000, 0.208
105.100, 0.219
105.200, 0.224
105.300, 0.233
105.400, 0.237
105.500, 0.238
105.600, 0.246
105.700, 0.214
105.800, 0.209
105.900, 0.220
106.000, 0.240
106.100, 0.257
106.200, 0.222
106.300, 0.230
106.400, 0.215
106.500, 0.191
106.600, 0.198
106.700, 0.235
106.800, 0.202
106.900, 0.261
107.000, 0.256
107.100, 0.245
107.200, 0.224
107.300, 0.248
107.400, 0.217
107.500, 0.220
107.600, 0.242
107.700, 0.262
107.800, 0.194
107.900, 0.199
108.000, 0.209
108.100, 0.232
108.200, 0.180
108.300, 0.170
108.400, 0.174
108.500, 0.183
108.600, 0.166
108.700, 0.178
108.800, 0.196
108.900, 0.187
109.000, 0.184
109.100, 0.215
109.200, 0.183
109.300, 0.196
109.400, 0.176
109.500, 0.190
109.600, 0.189
109.700, 0.229
109.800, 0.215
109.900, 0.186
110.000, 0.208
110.100, 0.198
110.200, 0.170
110.300, 0.191
110.400, 0.169
110.500, 0.178
110.600, 0.194
110.700, 0.192
110.800, 0.182
110.900, 0.165
111.000, 0.183
111.100, 0.154
111.200, 0.153
111.300, 0.139
111.400, 0.155
111.500, 0.158
111.600, 0.148
111.700, 0.185
111.800, 0.160
111.900, 0.174
112.000, 0.164
112.100, 0.169
112.200, 0.166
112.300, 0.183
112.400, 0.179
112.500, 0.192
112.600, 0.207
112.700, 0.212
112.800, 0.179
112.900, 0.168
113.000, 0.206
113.100, 0.255
113.200, 0.214
113.300, 0.182
113.400, 0.218
113.500, 0.224
113.600, 0.259
113.700, 0.195
113.800, 0.214
113.900, 0.191
114.000, 0.165
114.100, 0.146
114.200, 0.194
114.300, 0.188
114.400, 0.181
114.500, 0.179
114.600, 0.181
114.700, 0.176
114.800, 0.182
114.900, 0.210
115.000, 0.206
115.100, 0.178
115.200, 0.187
115.300, 0.181
115.400, 0.184
115.500, 0.172
115.600, 0.191
115.700, 0.217
115.800, 0.193
115.900, 0.204
116.000, 0.219
116.100, 0.206
116.200, 0.225
116.300, 0.234
116.400, 0.215
116.500, 0.244
116.600, 0.251
116.700, 0.251
116.800, 0.234
116.900, 0.239
117.000, 0.230
117.100, 0.236
117.200, 0.238
117.300, 0.313
117.400, 0.284
117.500, 0.233
117.600, 0.245
117.700, 0.276
117.800, 0.261
117.900, 0.252
118.000, 0.236
118.100, 0.250
118.200, 0.224
118.300, 0.276
118.400, 0.323
118.500, 0.280
118.600, 0.240
118.700, 0.234
118.800, 0.261
118.900, 0.258
119.000, 0.261
119.100, 0.252
119.200, 0.253
119.300, 0.298
119.400, 0.285
119.500, 0.240
119.600, 0.270
119.700, 0.275
119.800, 0.282
119.900, 0.278
120.000, 0.296
120.100, 0.288
120.200, 0.322
120.300, 0.283
120.400, 0.279
120.500, 0.284
120.600, 0.332
120.700, 0.286
120.800, 0.325
120.900, 0.338
121.000, 0.312
121.100, 0.329
121.200, 0.308
121.300, 0.309
121.400, 0.336
121.500, 0.334
121.600, 0.324
121.700, 0.292
121.800, 0.280
121.900, 0.290
122.000, 0.234
122.100, 0.243
122.200, 0.277
122.300, 0.253
122.400, 0.244
122.500, 0.237
122.600, 0.285
122.700, 0.235
122.800, 0.268
122.900, 0.277
123.000, 0.230
123.100, 0.224
123.200, 0.230
123.300, 0.218
123.400, 0.238
123.500, 0.263
123.600, 0.304
123.700, 0.281
123.800, 0.288
123.900, 0.293
124.000, 0.299
124.100, 0.223
124.200, 0.232
124.300, 0.228
124.400, 0.179
124.500, 0.260
124.600, 0.235
124.700, 0.244
124.800, 0.245
124.900, 0.211
125.000, 0.195
125.100, 0.216
125.200, 0.225
125.300, 0.215
125.400, 0.263
125.500, 0.242
125.600, 0.208
125.700, 0.244
125.800, 0.255
125.900, 0.313
126.000, 0.248
126.100, 0.232
126.200, 0.195
126.300, 0.249
126.400, 0.242
126.500, 0.196
126.600, 0.166
126.700, 0.179
126.800, 0.163
126.900, 0.188
127.000, 0.156
127.100, 0.189
127.200, 0.165
127.300, 0.178
127.400, 0.196
127.500, 0.174
127.600, 0.155
127.700, 0.171
127.800, 0.127
127.900, 0.139
128.000, 0.146
128.100, 0.135
128.200, 0.161
128.300, 0.139
128.400, 0.143
128.500, 0.163
128.600, 0.143
128.700, 0.171
128.800, 0.213
128.900, 0.163
129.000, 0.181
129.100, 0.180
129.200, 0.171
129.300, 0.190
129.400, 0.201
129.500, 0.215
129.600, 0.195
129.700, 0.201
129.800, 0.187
129.900, 0.171
130.000, 0.207
130.100, 0.206
130.200, 0.202
130.300, 0.169
130.400, 0.156
130.500, 0.187
130.600, 0.162
130.700, 0.170
130.800, 0.185
130.900, 0.197
131.000, 0.187
131.100, 0.177
131.200, 0.176
131.300, 0.172
131.400, 0.155
131.500, 0.131
131.600, 0.145
131.700, 0.153
131.800, 0.141
131.900, 0.136
132.000, 0.143
132.100, 0.149
132.200, 0.144
132.300, 0.148
132.400, 0.166
132.500, 0.197
132.600, 0.167
132.700, 0.178
132.800, 0.208
132.900, 0.167
133.000, 0.184
133.100, 0.192
133.200, 0.155
133.300, 0.161
133.400, 0.176
133.500, 0.173
133.600, 0.160
133.700, 0.163
133.800, 0.151
133.900, 0.161
134.000, 0.153
134.100, 0.149
134.200, 0.167
134.300, 0.181
134.400, 0.170
134.500, 0.192
134.600, 0.198
134.700, 0.185
134.800, 0.186
134.900, 0.173
135.000, 0.201
135.100, 0.177
135.200, 0.182
135.300, 0.191
135.400, 0.203
135.500, 0.204
135.600, 0.201
135.700, 0.212
135.800, 0.191
135.900, 0.234
136.000, 0.205
136.100, 0.183
136.200, 0.187
136.300, 0.185
136.400, 0.164
136.500, 0.183
136.600, 0.199
136.700, 0.179
136.800, 0.185
136.900, 0.187
137.000, 0.197
137.100, 0.200
137.200, 0.204
137.300, 0.218
137.400, 0.216
137.500, 0.179
137.600, 0.146
137.700, 0.189
137.800, 0.205
137.900, 0.210
138.000, 0.186
138.100, 0.175
138.200, 0.136
138.300, 0.114
138.400, 0.146
138.500, 0.156
138.600, 0.179
138.700, 0.181
138.800, 0.179
138.900, 0.157
139.000, 0.157
139.100, 0.129
139.200, 0.150
139.300, 0.130
139.400, 0.125
139.500, 0.136
139.600, 0.124
139.700, 0.136
139.800, 0.153
139.900, 0.167
140.000, 0.186
140.100, 0.182
140.200, 0.192
140.300, 0.196
140.400, 0.203
140.500, 0.172
140.600, 0.184
140.700, 0.166
140.800, 0.202
140.900, 0.177
141.000, 0.192
141.100, 0.172
141.200, 0.187
141.300, 0.178
141.400, 0.196
141.500, 0.177
141.600, 0.220
141.700, 0.194
141.800, 0.206
141.900, 0.254
142.000, 0.238
142.100, 0.230
142.200, 0.200
142.300, 0.169
142.400, 0.207
142.500, 0.214
142.600, 0.199
142.700, 0.204
142.800, 0.226
142.900, 0.196
143.000, 0.184
143.100, 0.233
143.200, 0.208
143.300, 0.207
143.400, 0.183
143.500, 0.211
143.600, 0.198
143.700, 0.210
143.800, 0.202
143.900, 0.228
144.000, 0.198
144.100, 0.235
144.200, 0.212
144.300, 0.210
144.400, 0.204
144.500, 0.209
144.600, 0.224
144.700, 0.194
144.800, 0.209
144.900, 0.186
145.000, 0.188
145.100, 0.187
145.200, 0.231
145.300, 0.199
145.400, 0.214
145.500, 0.191
145.600, 0.187
145.700, 0.190
145.800, 0.202
145.900, 0.231
146.000, 0.202
146.100, 0.219
146.200, 0.213
146.300, 0.212
146.400, 0.190
146.500, 0.191
146.600, 0.188
146.700, 0.188
146.800, 0.217
146.900, 0.220
147.000, 0.231
147.100, 0.252
147.200, 0.249
147.300, 0.246
147.400, 0.261
147.500, 0.247
147.600, 0.246
147.700, 0.241
147.800, 0.235
147.900, 0.223
148.000, 0.211
148.100, 0.252
148.200, 0.282
148.300, 0.246
148.400, 0.246
148.500, 0.241
148.600, 0.244
148.700, 0.251
148.800, 0.234
148.900, 0.252
149.000, 0.234
149.100, 0.234
149.200, 0.221
149.300, 0.186
149.400, 0.192
149.500, 0.192
149.600, 0.178
149.700, 0.206
149.800, 0.205
149.900, 0.238
150.000, 0.203
150.100, 0.229
150.200, 0.237
150.300, 0.222
150.400, 0.229
150.500, 0.187
150.600, 0.194
150.700, 0.206
150.800, 0.231
150.900, 0.231
151.000, 0.242
151.100, 0.235
151.200, 0.230
151.300, 0.221
151.400, 0.215
151.500, 0.227
151.600, 0.225
151.700, 0.249
151.800, 0.217
151.900, 0.212
152.000, 0.194
152.100, 0.211
152.200, 0.189
152.300, 0.236
152.400, 0.220
152.500, 0.229
152.600, 0.208
152.700, 0.210
152.800, 0.225
152.900, 0.196
153.000, 0.201
153.100, 0.209
153.200, 0.213
153.300, 0.195
153.400, 0.211
153.500, 0.216
153.600, 0.211
153.700, 0.186
153.800, 0.217
153.900, 0.202
154.000, 0.209
154.100, 0.193
154.200, 0.214
154.300, 0.188
154.400, 0.231
154.500, 0.223
154.600, 0.215
154.700, 0.220
154.800, 0.190
154.900, 0.198
155.000, 0.185
155.100, 0.175
155.200, 0.193
155.300, 0.193
155.400, 0.154
155.500, 0.153
155.600, 0.170
155.700, 0.164
155.800, 0.168
155.900, 0.196
156.000, 0.199
156.100, 0.193
156.200, 0.224
156.300, 0.228
156.400, 0.214
156.500, 0.208
156.600, 0.236
156.700, 0.220
156.800, 0.208
156.900, 0.208
157.000, 0.203
157.100, 0.205
157.200, 0.223
157.300, 0.221
157.400, 0.237
157.500, 0.256
157.600, 0.225
157.700, 0.220
157.800, 0.219
157.900, 0.201
158.000, 0.200
158.100, 0.204
158.200, 0.235
158.300, 0.200
158.400, 0.220
158.500, 0.226
158.600, 0.202
158.700, 0.214
158.800, 0.215
158.900, 0.225
159.000, 0.210
159.100, 0.217
159.200, 0.218
159.300, 0.207
159.400, 0.197
159.500, 0.187
159.600, 0.209
159.700, 0.194
159.800, 0.199
159.900, 0.193
160.000, 0.214
160.100, 0.221
160.200, 0.219
160.300, 0.207
160.400, 0.217
160.500, 0.221
160.600, 0.233
160.700, 0.220
160.800, 0.262
160.900, 0.231
161.000, 0.243
161.100, 0.262
161.200, 0.296
161.300, 0.283
161.400, 0.236
161.500, 0.272
161.600, 0.226
161.700, 0.217
161.800, 0.223
161.900, 0.213
162.000, 0.206
162.100, 0.222
162.200, 0.213
162.300, 0.213
162.400, 0.214
162.500, 0.237
162.600, 0.197
162.700, 0.188
162.800, 0.181
162.900, 0.200
163.000, 0.181
163.100, 0.205
163.200, 0.232
163.300, 0.229
163.400, 0.197
163.500, 0.183
163.600, 0.212
163.700, 0.213
163.800, 0.193
163.900, 0.191
164.000, 0.207
164.100, 0.205
164.200, 0.202
164.300, 0.182
164.400, 0.185
164.500, 0.183
164.600, 0.189
164.700, 0.184
164.800, 0.198
164.900, 0.197
165.000, 0.227
165.100, 0.213
165.200, 0.183
165.300, 0.187
165.400, 0.186
165.500, 0.225
165.600, 0.239
165.700, 0.229
165.800, 0.234
165.900, 0.207
166.000, 0.213
166.100, 0.198
166.200, 0.207
166.300, 0.228
166.400, 0.227
166.500, 0.190
166.600, 0.198
166.700, 0.214
166.800, 0.191
166.900, 0.201
167.000, 0.223
167.100, 0.217
167.200, 0.217
167.300, 0.202
167.400, 0.182
167.500, 0.194
167.600, 0.208
167.700, 0.203
167.800, 0.217
167.900, 0.205
168.000, 0.260
168.100, 0.229
168.200, 0.230
168.300, 0.201
168.400, 0.218
168.500, 0.232
168.600, 0.221
168.700, 0.196
168.800, 0.199
168.900, 0.177
169.000, 0.200
169.100, 0.217
169.200, 0.218
169.300, 0.205
169.400, 0.224
169.500, 0.258
169.600, 0.217
169.700, 0.221
169.800, 0.199
169.900, 0.179
170.000, 0.212
170.100, 0.189
170.200, 0.183
170.300, 0.173
170.400, 0.174
170.500, 0.167
170.600, 0.208
170.700, 0.221
170.800, 0.216
170.900, 0.164
171.000, 0.148
171.100, 0.166
171.200, 0.186
171.300, 0.194
171.400, 0.197
171.500, 0.170
171.600, 0.163
171.700, 0.188
171.800, 0.176
171.900, 0.202
172.000, 0.163
172.100, 0.151
172.200, 0.199
172.300, 0.166
172.400, 0.173
172.500, 0.166
172.600, 0.185
172.700, 0.166
172.800, 0.179
172.900, 0.182
173.000, 0.173
173.100, 0.175
173.200, 0.215
173.300, 0.178
173.400, 0.183
173.500, 0.209
173.600, 0.166
173.700, 0.215
173.800, 0.214
173.900, 0.201
174.000, 0.202
174.100, 0.211
174.200, 0.199
174.300, 0.202
174.400, 0.211
174.500, 0.187
174.600, 0.225
174.700, 0.221
174.800, 0.200
174.900, 0.220
175.000, 0.239
175.100, 0.213
175.200, 0.208
175.300, 0.190
175.400, 0.193
175.500, 0.175
175.600, 0.194
175.700, 0.190
175.800, 0.205
175.900, 0.262
176.000, 0.229
176.100, 0.200
176.200, 0.189
176.300, 0.196
176.400, 0.223
176.500, 0.212
176.600, 0.218
176.700, 0.229
176.800, 0.225
176.900, 0.225
177.000, 0.237
177.100, 0.223
177.200, 0.228
177.300, 0.263
177.400, 0.262
177.500, 0.258
177.600, 0.213
177.700, 0.208
177.800, 0.231
177.900, 0.232
178.000, 0.221
178.100, 0.212
178.200, 0.222
178.300, 0.234
178.400, 0.203
178.500, 0.180
178.600, 0.207
178.700, 0.193
178.800, 0.225
178.900, 0.217
179.000, 0.180
179.100, 0.193
179.200, 0.196
179.300, 0.176
179.400, 0.192
179.500, 0.176
179.600, 0.184
179.700, 0.170
179.800, 0.171
179.900, 0.181
180.000, 0.195
180.100, 0.208
180.200, 0.219
180.300, 0.220
180.400, 0.205
180.500, 0.199
180.600, 0.192
180.700, 0.206
180.800, 0.200
180.900, 0.227
181.000, 0.222
181.100, 0.225
181.200, 0.239
181.300, 0.216
181.400, 0.228
181.500, 0.202
181.600, 0.217
181.700, 0.202
181.800, 0.231
181.900, 0.204
182.000, 0.202
182.100, 0.232
182.200, 0.218
182.300, 0.252
182.400, 0.227
182.500, 0.234
182.600, 0.214
182.700, 0.203
182.800, 0.209
182.900, 0.181
183.000, 0.209
183.100, 0.186
183.200, 0.177
183.300, 0.211
183.400, 0.217
183.500, 0.202
183.600, 0.176
183.700, 0.175
183.800, 0.180
183.900, 0.188
184.000, 0.182
184.100, 0.188
184.200, 0.195
184.300, 0.213
184.400, 0.189
184.500, 0.204
184.600, 0.212
184.700, 0.246
184.800, 0.245
184.900, 0.229
185.000, 0.262
185.100, 0.256
185.200, 0.227
185.300, 0.215
185.400, 0.200
185.500, 0.237
185.600, 0.243
185.700, 0.262
185.800, 0.252
185.900, 0.225
186.000, 0.262
186.100, 0.252
186.200, 0.208
186.300, 0.227
186.400, 0.202
186.500, 0.218
186.600, 0.204
186.700, 0.166
186.800, 0.186
186.900, 0.184
187.000, 0.193
187.100, 0.194
187.200, 0.190
187.300, 0.184
187.400, 0.178
187.500, 0.186
187.600, 0.191
187.700, 0.184
187.800, 0.216
187.900, 0.218
188.000, 0.233
188.100, 0.207
188.200, 0.233
188.300, 0.244
188.400, 0.224
188.500, 0.234
188.600, 0.225
188.700, 0.216
188.800, 0.244
188.900, 0.232
189.000, 0.221
189.100, 0.217
189.200, 0.210
189.300, 0.210
189.400, 0.218
189.500, 0.201
189.600, 0.203
189.700, 0.169
189.800, 0.178
189.900, 0.185
190.000, 0.187
190.100, 0.198
190.200, 0.188
190.300, 0.191
190.400, 0.206
190.500, 0.179
190.600, 0.168
190.700, 0.192
190.800, 0.193
190.900, 0.186
191.000, 0.193
191.100, 0.181
191.200, 0.211
191.300, 0.208
191.400, 0.211
191.500, 0.227
191.600, 0.226
191.700, 0.228
191.800, 0.210
191.900, 0.210
192.000, 0.227
192.100, 0.218
192.200, 0.225
192.300, 0.227
192.400, 0.202
192.500, 0.237
192.600, 0.254
192.700, 0.235
192.800, 0.230
192.900, 0.222
193.000, 0.203
193.100, 0.211
193.200, 0.203
193.300, 0.216
193.400, 0.194
193.500, 0.174
193.600, 0.165
193.700, 0.197
193.800, 0.193
193.900, 0.197
194.000, 0.209
194.100, 0.233
194.200, 0.222
194.300, 0.206
194.400, 0.192
194.500, 0.189
194.600, 0.175
194.700, 0.165
194.800, 0.187
194.900, 0.176
195.000, 0.196
195.100, 0.184
195.200, 0.183
195.300, 0.158
195.400, 0.202
195.500, 0.175
195.600, 0.202
195.700, 0.203
195.800, 0.205
195.900, 0.160
196.000, 0.178
196.100, 0.194
196.200, 0.178
196.300, 0.173
196.400, 0.186
196.500, 0.189
196.600, 0.167
196.700, 0.148
196.800, 0.163
196.900, 0.171
197.000, 0.162
197.100, 0.163
197.200, 0.140
197.300, 0.138
197.400, 0.152
197.500, 0.155
197.600, 0.145
197.700, 0.141
197.800, 0.140
197.900, 0.138
198.000, 0.120
198.100, 0.132
198.200, 0.146
198.300, 0.204
198.400, 0.181
198.500, 0.183
198.600, 0.150
198.700, 0.175
198.800, 0.178
198.900, 0.180
199.000, 0.192
199.100, 0.176
199.200, 0.167
199.300, 0.175
199.400, 0.217
199.500, 0.197
199.600, 0.210
199.700, 0.184
199.800, 0.201
199.900, 0.160
200.000, 0.183
200.100, 0.165
200.200, 0.169
200.300, 0.181
200.400, 0.187
200.500, 0.221
200.600, 0.186
200.700, 0.187
200.800, 0.206
200.900, 0.201
201.000, 0.178
201.100, 0.193
201.200, 0.184
201.300, 0.190
201.400, 0.188
201.500, 0.201
201.600, 0.206
201.700, 0.220
201.800, 0.192
201.900, 0.238
202.000, 0.205
202.100, 0.220
202.200, 0.198
202.300, 0.228
202.400, 0.221
202.500, 0.204
202.600, 0.232
202.700, 0.216
202.800, 0.234
202.900, 0.211
203.000, 0.232
203.100, 0.245
203.200, 0.248
203.300, 0.212
203.400, 0.224
203.500, 0.198
203.600, 0.212
203.700, 0.201
203.800, 0.200
203.900, 0.206
204.000, 0.176
204.100, 0.194
204.200, 0.221
204.300, 0.209
204.400, 0.223
204.500, 0.221
204.600, 0.217
204.700, 0.223
204.800, 0.216
204.900, 0.189
205.000, 0.202
205.100, 0.217
205.200, 0.195
205.300, 0.192
205.400, 0.214
205.500, 0.224
205.600, 0.216
205.700, 0.211
205.800, 0.215
205.900, 0.200
206.000, 0.226
206.100, 0.201
206.200, 0.211
206.300, 0.234
206.400, 0.229
206.500, 0.210
206.600, 0.208
206.700, 0.211
206.800, 0.199
206.900, 0.216
207.000, 0.232
207.100, 0.228
207.200, 0.231
207.300, 0.218
207.400, 0.221
207.500, 0.213
207.600, 0.189
207.700, 0.246
207.800, 0.213
207.900, 0.210
208.000, 0.228
208.100, 0.220
208.200, 0.227
208.300, 0.229
208.400, 0.224
208.500, 0.252
208.600, 0.229
208.700, 0.226
208.800, 0.217
208.900, 0.199
209.000, 0.198
209.100, 0.195
209.200, 0.215
209.300, 0.204
209.400, 0.229
209.500, 0.231
209.600, 0.240
209.700, 0.211
209.800, 0.207
209.900, 0.205
210.000, 0.230
210.100, 0.214
210.200, 0.236
210.300, 0.222
210.400, 0.220
210.500, 0.238
210.600, 0.215
210.700, 0.214
210.800, 0.225
210.900, 0.267
211.000, 0.242
211.100, 0.259
211.200, 0.270
211.300, 0.247
211.400, 0.215
211.500, 0.239
211.600, 0.224
211.700, 0.237
211.800, 0.230
211.900, 0.216
212.000, 0.195
212.100, 0.209
212.200, 0.206
212.300, 0.183
212.400, 0.193
212.500, 0.231
212.600, 0.258
212.700, 0.270
212.800, 0.238
212.900, 0.222
213.000, 0.235
213.100, 0.254
213.200, 0.247
213.300, 0.252
213.400, 0.224
213.500, 0.220
213.600, 0.206
213.700, 0.239
213.800, 0.231
213.900, 0.254
214.000, 0.232
214.100, 0.220
214.200, 0.240
214.300, 0.206
214.400, 0.230
214.500, 0.239
214.600, 0.228
214.700, 0.252
214.800, 0.255
214.900, 0.214
215.000, 0.222
215.100, 0.217
215.200, 0.219
215.300, 0.214
215.400, 0.218
215.500, 0.217
215.600, 0.238
215.700, 0.244
215.800, 0.223
215.900, 0.219
216.000, 0.216
216.100, 0.220
216.200, 0.228
216.300, 0.241
216.400, 0.255
216.500, 0.224
216.600, 0.241
216.700, 0.202
216.800, 0.230
216.900, 0.227
217.000, 0.207
217.100, 0.218
217.200, 0.210
217.300, 0.193
217.400, 0.170
217.500, 0.216
217.600, 0.195
217.700, 0.211
217.800, 0.235
217.900, 0.218
218.000, 0.249
218.100, 0.222
218.200, 0.217
218.300, 0.192
218.400, 0.209
218.500, 0.214
218.600, 0.201
218.700, 0.220
218.800, 0.228
218.900, 0.186
219.000, 0.194
219.100, 0.204
219.200, 0.218
219.300, 0.198
219.400, 0.215
219.500, 0.218
219.600, 0.221
219.700, 0.228
219.800, 0.239
219.900, 0.238
220.000, 0.238
220.100, 0.192
220.200, 0.206
220.300, 0.219
220.400, 0.209
220.500, 0.197
220.600, 0.190
220.700, 0.192
220.800, 0.186
220.900, 0.199
221.000, 0.189
221.100, 0.256
221.200, 0.223
221.300, 0.210
221.400, 0.239
221.500, 0.199
221.600, 0.244
221.700, 0.222
221.800, 0.221
221.900, 0.261
222.000, 0.215
222.100, 0.271
222.200, 0.251
222.300, 0.222
222.400, 0.206
222.500, 0.221
222.600, 0.210
222.700, 0.186
222.800, 0.186
222.900, 0.215
223.000, 0.255
223.100, 0.207
223.200, 0.201
223.300, 0.204
223.400, 0.229
223.500, 0.230
223.600, 0.237
223.700, 0.236
223.800, 0.207
223.900, 0.230
224.000, 0.230
224.100, 0.244
224.200, 0.220
224.300, 0.196
224.400, 0.200
224.500, 0.208
224.600, 0.205
224.700, 0.241
224.800, 0.231
224.900, 0.200
225.000, 0.189
225.100, 0.207
225.200, 0.193
225.300, 0.205
225.400, 0.188
225.500, 0.203
225.600, 0.213
225.700, 0.193
225.800, 0.179
225.900, 0.186
226.000, 0.196
226.100, 0.201
226.200, 0.176
226.300, 0.168
226.400, 0.149
226.500, 0.197
226.600, 0.184
226.700, 0.193
226.800, 0.242
226.900, 0.222
227.000, 0.193
227.100, 0.209
227.200, 0.250
227.300, 0.236
227.400, 0.206
227.500, 0.213
227.600, 0.223
227.700, 0.226
227.800, 0.225
227.900, 0.203
228.000, 0.204
228.100, 0.216
228.200, 0.191
228.300, 0.175
228.400, 0.185
228.500, 0.215
228.600, 0.206
228.700, 0.183
228.800, 0.195
228.900, 0.215
229.000, 0.196
229.100, 0.188
229.200, 0.193
229.300, 0.224
229.400, 0.212
229.500, 0.201
229.600, 0.193
229.700, 0.212
229.800, 0.216
229.900, 0.210
230.000, 0.226
230.100, 0.218
230.200, 0.223
230.300, 0.217
230.400, 0.202
230.500, 0.233
230.600, 0.218
230.700, 0.218
230.800, 0.198
230.900, 0.232
231.000, 0.231
231.100, 0.246
231.200, 0.225
231.300, 0.227
231.400, 0.229
231.500, 0.223
231.600, 0.214
231.700, 0.211
231.800, 0.195
231.900, 0.207
232.000, 0.212
232.100, 0.222
232.200, 0.242
232.300, 0.249
232.400, 0.248
232.500, 0.229
232.600, 0.250
232.700, 0.241
232.800, 0.249
232.900, 0.245
233.000, 0.281
233.100, 0.242
233.200, 0.250
233.300, 0.224
233.400, 0.242
233.500, 0.239
233.600, 0.253
233.700, 0.243
233.800, 0.238
233.900, 0.250
234.000, 0.228
234.100, 0.245
234.200, 0.219
234.300, 0.234
234.400, 0.194
234.500, 0.197
234.600, 0.194
234.700, 0.228
234.800, 0.243
234.900, 0.213
235.000, 0.208
235.100, 0.225
235.200, 0.243
235.300, 0.241
235.400, 0.239
235.500, 0.213
235.600, 0.216
235.700, 0.175
235.800, 0.171
235.900, 0.186
236.000, 0.192
236.100, 0.210
236.200, 0.199
236.300, 0.220
236.400, 0.226
236.500, 0.231
236.600, 0.227
236.700, 0.241
236.800, 0.223
236.900, 0.227
237.000, 0.204
237.100, 0.236
237.200, 0.232
237.300, 0.227
237.400, 0.206
237.500, 0.249
237.600, 0.240
237.700, 0.213
237.800, 0.231
237.900, 0.222
238.000, 0.231
238.100, 0.249
238.200, 0.217
238.300, 0.234
238.400, 0.195
238.500, 0.191
238.600, 0.223
238.700, 0.197
238.800, 0.194
238.900, 0.207
239.000, 0.211
239.100, 0.226
239.200, 0.218
239.300, 0.215
239.400, 0.218
239.500, 0.209
239.600, 0.194
239.700, 0.224
239.800, 0.210
239.900, 0.198
240.000, 0.190
240.100, 0.206
240.200, 0.218
240.300, 0.199
240.400, 0.225
240.500, 0.210
240.600, 0.201
240.700, 0.218
240.800, 0.238
240.900, 0.231
241.000, 0.236
241.100, 0.216
241.200, 0.227
241.300, 0.208
241.400, 0.215
241.500, 0.204
241.600, 0.212
241.700, 0.203
241.800, 0.188
241.900, 0.210
242.000, 0.242
242.100, 0.218
242.200, 0.187
242.300, 0.220
242.400, 0.245
242.500, 0.234
242.600, 0.199
242.700, 0.202
242.800, 0.212
242.900, 0.206
243.000, 0.206
243.100, 0.211
243.200, 0.214
243.300, 0.235
243.400, 0.217
243.500, 0.240
243.600, 0.221
243.700, 0.219
243.800, 0.222
243.900, 0.227
244.000, 0.252
244.100, 0.234
244.200, 0.232
244.300, 0.223
244.400, 0.217
244.500, 0.239
244.600, 0.235
244.700, 0.245
244.800, 0.265
244.900, 0.226
245.000, 0.219
245.100, 0.208
245.200, 0.234
245.300, 0.234
245.400, 0.229
245.500, 0.236
245.600, 0.231
245.700, 0.224
245.800, 0.236
245.900, 0.209
246.000, 0.230
246.100, 0.261
246.200, 0.229
246.300, 0.228
246.400, 0.213
246.500, 0.227
246.600, 0.229
246.700, 0.230
246.800, 0.218
246.900, 0.228
247.000, 0.274
247.100, 0.256
247.200, 0.231
247.300, 0.223
247.400, 0.281
247.500, 0.279
247.600, 0.302
247.700, 0.303
247.800, 0.263
247.900, 0.248
248.000, 0.239
248.100, 0.239
248.200, 0.240
248.300, 0.255
248.400, 0.230
248.500, 0.227
248.600, 0.221
248.700, 0.231
248.800, 0.223
248.900, 0.222
249.000, 0.251
249.100, 0.254
249.200, 0.211
249.300, 0.236
249.400, 0.236
249.500, 0.206
249.600, 0.216
249.700, 0.262
249.800, 0.252
249.900, 0.214
250.000, 0.227
250.100, 0.237
250.200, 0.235
250.300, 0.214
250.400, 0.231
250.500, 0.213
250.600, 0.204
250.700, 0.208
250.800, 0.221
250.900, 0.208
251.000, 0.226
251.100, 0.206
251.200, 0.214
251.300, 0.197
251.400, 0.204
251.500, 0.213
251.600, 0.201
251.700, 0.176
251.800, 0.210
251.900, 0.202
252.000, 0.193
252.100, 0.211
252.200, 0.222
252.300, 0.200
252.400, 0.226
252.500, 0.243
252.600, 0.203
252.700, 0.194
252.800, 0.209
252.900, 0.220
253.000, 0.216
253.100, 0.190
253.200, 0.190
253.300, 0.199
253.400, 0.199
253.500, 0.217
253.600, 0.205
253.700, 0.204
253.800, 0.206
253.900, 0.206
254.000, 0.221
254.100, 0.207
254.200, 0.237
254.300, 0.248
254.400, 0.206
254.500, 0.206
254.600, 0.206
254.700, 0.195
254.800, 0.222
254.900, 0.210
255.000, 0.239
255.100, 0.233
255.200, 0.217
255.300, 0.221
255.400, 0.189
255.500, 0.217
255.600, 0.205
255.700, 0.207
255.800, 0.209
255.900, 0.221
256.000, 0.209
256.100, 0.190
256.200, 0.213
256.300, 0.221
256.400, 0.188
256.500, 0.194
256.600, 0.185
256.700, 0.179
256.800, 0.191
256.900, 0.213
257.000, 0.226
257.100, 0.228
257.200, 0.211
257.300, 0.214
257.400, 0.228
257.500, 0.225
257.600, 0.217
257.700, 0.197
257.800, 0.196
257.900, 0.187
258.000, 0.197
258.100, 0.200
258.200, 0.193
258.300, 0.189
258.400, 0.176
258.500, 0.175
258.600, 0.169
258.700, 0.159
258.800, 0.191
258.900, 0.174
259.000, 0.167
259.100, 0.176
259.200, 0.164
259.300, 0.159
259.400, 0.163
259.500, 0.174
259.600, 0.164
259.700, 0.194
259.800, 0.205
259.900, 0.180
260.000, 0.171
260.100, 0.192
260.200, 0.170
260.300, 0.171
260.400, 0.176
260.500, 0.190
260.600, 0.163
260.700, 0.212
260.800, 0.193
260.900, 0.196
261.000, 0.190
261.100, 0.176
261.200, 0.200
261.300, 0.170
261.400, 0.179
261.500, 0.187
261.600, 0.179
261.700, 0.191
261.800, 0.174
261.900, 0.182
262.000, 0.173
262.100, 0.191
262.200, 0.184
262.300, 0.193
262.400, 0.197
262.500, 0.184
262.600, 0.175
262.700, 0.185
262.800, 0.178
262.900, 0.187
263.000, 0.185
263.100, 0.211
263.200, 0.178
263.300, 0.181
263.400, 0.196
263.500, 0.185
263.600, 0.177
263.700, 0.191
263.800, 0.181
263.900, 0.177
264.000, 0.196
264.100, 0.185
264.200, 0.176
264.300, 0.187
264.400, 0.184
264.500, 0.183
264.600, 0.190
264.700, 0.213
264.800, 0.184
264.900, 0.206
265.000, 0.180
265.100, 0.179
265.200, 0.208
265.300, 0.193
265.400, 0.183
265.500, 0.190
265.600, 0.202
265.700, 0.203
265.800, 0.218
265.900, 0.219
266.000, 0.204
266.100, 0.203
266.200, 0.211
266.300, 0.204
266.400, 0.214
266.500, 0.246
266.600, 0.226
266.700, 0.199
266.800, 0.243
266.900, 0.219
267.000, 0.250
267.100, 0.224
267.200, 0.216
267.300, 0.209
267.400, 0.214
267.500, 0.210
267.600, 0.209
267.700, 0.214
267.800, 0.208
267.900, 0.218
268.000, 0.227
268.100, 0.226
268.200, 0.202
268.300, 0.203
268.400, 0.228
268.500, 0.227
268.600, 0.230
268.700, 0.204
268.800, 0.197
268.900, 0.170
269.000, 0.194
269.100, 0.193
269.200, 0.186
269.300, 0.207
269.400, 0.188
269.500, 0.184
269.600, 0.190
269.700, 0.177
269.800, 0.184
269.900, 0.160
270.000, 0.170
270.100, 0.186
270.200, 0.212
270.300, 0.213
270.400, 0.201
270.500, 0.200
270.600, 0.226
270.700, 0.241
270.800, 0.219
270.900, 0.212
271.000, 0.216
271.100, 0.235
271.200, 0.237
271.300, 0.228
271.400, 0.217
271.500, 0.207
271.600, 0.241
271.700, 0.248
271.800, 0.215
271.900, 0.226
272.000, 0.216
272.100, 0.206
272.200, 0.226
272.300, 0.237
272.400, 0.214
272.500, 0.201
272.600, 0.196
272.700, 0.189
272.800, 0.210
272.900, 0.213
273.000, 0.189
273.100, 0.182
273.200, 0.202
273.300, 0.227
273.400, 0.273
273.500, 0.279
273.600, 0.287
273.700, 0.276
273.800, 0.289
273.900, 0.281
274.000, 0.276
274.100, 0.264
274.200, 0.285
274.300, 0.292
274.400, 0.301
274.500, 0.284
274.600, 0.299
274.700, 0.286
274.800, 0.284
274.900, 0.301
275.000, 0.284
275.100, 0.276
275.200, 0.295
275.300, 0.267
275.400, 0.282
275.500, 0.291
275.600, 0.285
275.700, 0.245
275.800, 0.223
275.900, 0.210
276.000, 0.192
276.100, 0.199
276.200, 0.192
276.300, 0.200
276.400, 0.222
276.500, 0.236
276.600, 0.183
276.700, 0.192
276.800, 0.199
276.900, 0.196
277.000, 0.213
277.100, 0.202
277.200, 0.190
277.300, 0.185
277.400, 0.210
277.500, 0.224
277.600, 0.196
277.700, 0.211
277.800, 0.199
277.900, 0.204
278.000, 0.181
278.100, 0.190
278.200, 0.188
278.300, 0.204
278.400, 0.190
278.500, 0.167
278.600, 0.162
278.700, 0.185
278.800, 0.185
278.900, 0.145
279.000, 0.166
279.100, 0.184
279.200, 0.176
279.300, 0.189
279.400, 0.175
279.500, 0.186
279.600, 0.191
279.700, 0.209
279.800, 0.218
279.900, 0.209
280.000, 0.219
280.100, 0.233
280.200, 0.215
280.300, 0.224
280.400, 0.228
280.500, 0.206
280.600, 0.201
280.700, 0.212
280.800, 0.224
280.900, 0.221
281.000, 0.208
281.100, 0.215
281.200, 0.186
281.300, 0.171
281.400, 0.175
281.500, 0.194
281.600, 0.185
281.700, 0.169
281.800, 0.194
281.900, 0.198
282.000, 0.198
282.100, 0.181
282.200, 0.171
282.300, 0.190
282.400, 0.197
282.500, 0.199
282.600, 0.166
282.700, 0.172
282.800, 0.190
282.900, 0.178
283.000, 0.171
283.100, 0.180
283.200, 0.187
283.300, 0.165
283.400, 0.189
283.500, 0.212
283.600, 0.212
283.700, 0.191
283.800, 0.204
283.900, 0.196
284.000, 0.243
284.100, 0.203
284.200, 0.186
284.300, 0.206
284.400, 0.181
284.500, 0.181
284.600, 0.173
284.700, 0.184
284.800, 0.168
284.900, 0.176
285.000, 0.184
285.100, 0.184
285.200, 0.163
285.300, 0.175
285.400, 0.164
285.500, 0.189
285.600, 0.175
285.700, 0.166
285.800, 0.164
285.900, 0.195
286.000, 0.225
286.100, 0.177
286.200, 0.162
286.300, 0.161
286.400, 0.168
286.500, 0.165
286.600, 0.178
286.700, 0.184
286.800, 0.195
286.900, 0.195
287.000, 0.202
287.100, 0.193
287.200, 0.181
287.300, 0.193
287.400, 0.193
287.500, 0.190
287.600, 0.191
287.700, 0.176
287.800, 0.184
287.900, 0.213
288.000, 0.189
288.100, 0.161
288.200, 0.169
288.300, 0.161
288.400, 0.159
288.500, 0.189
288.600, 0.179
288.700, 0.180
288.800, 0.177
288.900, 0.176
289.000, 0.174
289.100, 0.168
289.200, 0.169
289.300, 0.170
289.400, 0.167
289.500, 0.152
289.600, 0.167
289.700, 0.166
289.800, 0.163
289.900, 0.165
290.000, 0.160
290.100, 0.178
290.200, 0.165
290.300, 0.180
290.400, 0.191
290.500, 0.178
290.600, 0.190
290.700, 0.166
290.800, 0.180
290.900, 0.175
291.000, 0.222
291.100, 0.212
291.200, 0.189
291.300, 0.204
291.400, 0.164
291.500, 0.169
291.600, 0.207
291.700, 0.209
291.800, 0.222
291.900, 0.211
292.000, 0.188
292.100, 0.191
292.200, 0.200
292.300, 0.189
292.400, 0.166
292.500, 0.175
292.600, 0.202
292.700, 0.234
292.800, 0.169
292.900, 0.175
293.000, 0.179
293.100, 0.185
293.200, 0.201
293.300, 0.195
293.400, 0.185
293.500, 0.199
293.600, 0.205
293.700, 0.202
293.800, 0.205
293.900, 0.171
294.000, 0.187
294.100, 0.193
294.200, 0.171
294.300, 0.167
294.400, 0.185
294.500, 0.170
294.600, 0.180
294.700, 0.192
294.800, 0.172
294.900, 0.201
295.000, 0.187
295.100, 0.180
295.200, 0.181
295.300, 0.157
295.400, 0.158
295.500, 0.160
295.600, 0.142
295.700, 0.164
295.800, 0.152
295.900, 0.150
296.000, 0.169
296.100, 0.164
296.200, 0.172
296.300, 0.170
296.400, 0.170
296.500, 0.165
296.600, 0.170
296.700, 0.165
296.800, 0.159
296.900, 0.177
297.000, 0.161
297.100, 0.159
297.200, 0.163
297.300, 0.162
297.400, 0.159
297.500, 0.152
297.600, 0.177
297.700, 0.172
297.800, 0.190
297.900, 0.178
298.000, 0.162
298.100, 0.187
298.200, 0.165
298.300, 0.193
298.400, 0.158
298.500, 0.159
298.600, 0.160
298.700, 0.167
298.800, 0.185
298.900, 0.222
299.000, 0.209
299.100, 0.213
299.200, 0.196
299.300, 0.200
299.400, 0.192
299.500, 0.197
299.600, 0.179
299.700, 0.192
299.800, 0.179
299.900, 0.212
300.000, 0.238
300.100, 0.217
300.200, 0.204
300.300, 0.207
300.400, 0.222
300.500, 0.195
300.600, 0.198
300.700, 0.200
300.800, 0.218
300.900, 0.207
301.000, 0.213
301.100, 0.198
301.200, 0.200
301.300, 0.202
301.400, 0.207
301.500, 0.221
301.600, 0.187
301.700, 0.191
301.800, 0.209
301.900, 0.205
302.000, 0.182
302.100, 0.193
302.200, 0.184
302.300, 0.194
302.400, 0.192
302.500, 0.197
302.600, 0.213
302.700, 0.209
302.800, 0.212
302.900, 0.235
303.000, 0.209
303.100, 0.200
303.200, 0.210
303.300, 0.197
303.400, 0.185
303.500, 0.204
303.600, 0.194
303.700, 0.191
303.800, 0.194
303.900, 0.210
304.000, 0.219
304.100, 0.196
304.200, 0.211
304.300, 0.193
304.400, 0.183
304.500, 0.196
304.600, 0.202
304.700, 0.204
304.800, 0.223
304.900, 0.183
305.000, 0.213
305.100, 0.211
305.200, 0.186
305.300, 0.172
305.400, 0.187
305.500, 0.203
305.600, 0.201
305.700, 0.205
305.800, 0.200
305.900, 0.208
306.000, 0.203
306.100, 0.207
306.200, 0.238
306.300, 0.193
306.400, 0.206
306.500, 0.204
306.600, 0.213
306.700, 0.214
306.800, 0.236
306.900, 0.208
307.000, 0.251
307.100, 0.251
307.200, 0.217
307.300, 0.211
307.400, 0.224
307.500, 0.207
307.600, 0.202
307.700, 0.223
307.800, 0.202
307.900, 0.201
308.000, 0.200
308.100, 0.185
308.200, 0.188
308.300, 0.210
308.400, 0.213
308.500, 0.204
308.600, 0.222
308.700, 0.217
308.800, 0.223
308.900, 0.204
309.000, 0.203
309.100, 0.200
309.200, 0.185
309.300, 0.210
309.400, 0.184
309.500, 0.196
309.600, 0.196
309.700, 0.200
309.800, 0.224
309.900, 0.210
310.000, 0.206
310.100, 0.185
310.200, 0.190
310.300, 0.178
310.400, 0.200
310.500, 0.193
310.600, 0.186
310.700, 0.192
310.800, 0.189
310.900, 0.205
311.000, 0.177
311.100, 0.182
311.200, 0.164
311.300, 0.172
311.400, 0.191
311.500, 0.185
311.600, 0.191
311.700, 0.191
311.800, 0.186
311.900, 0.191
312.000, 0.196
312.100, 0.208
312.200, 0.183
312.300, 0.178
312.400, 0.157
312.500, 0.188
312.600, 0.169
312.700, 0.170
312.800, 0.169
312.900, 0.169
313.000, 0.156
313.100, 0.184
313.200, 0.173
313.300, 0.174
313.400, 0.199
313.500, 0.206
313.600, 0.194
313.700, 0.207
313.800, 0.199
313.900, 0.187
314.000, 0.208
314.100, 0.236
314.200, 0.210
314.300, 0.193
314.400, 0.223
314.500, 0.210
314.600, 0.202
314.700, 0.195
314.800, 0.188
314.900, 0.183
315.000, 0.219
315.100, 0.200
315.200, 0.210
315.300, 0.191
315.400, 0.190
315.500, 0.213
315.600, 0.202
315.700, 0.185
315.800, 0.171
315.900, 0.185
316.000, 0.175
316.100, 0.214
316.200, 0.245
316.300, 0.257
316.400, 0.236
316.500, 0.230
316.600, 0.213
316.700, 0.230
316.800, 0.221
316.900, 0.220
317.000, 0.204
317.100, 0.202
317.200, 0.193
317.300, 0.184
317.400, 0.180
317.500, 0.213
317.600, 0.217
317.700, 0.200
317.800, 0.195
317.900, 0.172
318.000, 0.189
318.100, 0.209
318.200, 0.188
318.300, 0.180
318.400, 0.204
318.500, 0.184
318.600, 0.178
318.700, 0.206
318.800, 0.209
318.900, 0.203
319.000, 0.197
319.100, 0.231
319.200, 0.223
319.300, 0.234
319.400, 0.212
319.500, 0.194
319.600, 0.217
319.700, 0.216
319.800, 0.214
319.900, 0.225
320.000, 0.224
320.100, 0.192
320.200, 0.187
320.300, 0.185
320.400, 0.209
320.500, 0.185
320.600, 0.197
320.700, 0.184
320.800, 0.187
320.900, 0.191
321.000, 0.185
321.100, 0.195
321.200, 0.198
321.300, 0.201
321.400, 0.202
321.500, 0.214
321.600, 0.173
321.700, 0.220
321.800, 0.188
321.900, 0.180
322.000, 0.183
322.100, 0.174
322.200, 0.190
322.300, 0.179
322.400, 0.172
322.500, 0.165
322.600, 0.170
322.700, 0.194
322.800, 0.202
322.900, 0.194
323.000, 0.181
323.100, 0.193
323.200, 0.220
323.300, 0.213
323.400, 0.197
323.500, 0.213
323.600, 0.184
323.700, 0.212
323.800, 0.208
323.900, 0.230
324.000, 0.222
324.100, 0.224
324.200, 0.238
324.300, 0.202
324.400, 0.211
324.500, 0.225
324.600, 0.228
324.700, 0.231
324.800, 0.224
324.900, 0.209
325.000, 0.204
325.100, 0.204
325.200, 0.201
325.300, 0.199
325.400, 0.196
325.500, 0.189
325.600, 0.194
325.700, 0.183
325.800, 0.201
325.900, 0.197
326.000, 0.194
326.100, 0.180
326.200, 0.201
326.300, 0.213
326.400, 0.201
326.500, 0.189
326.600, 0.221
326.700, 0.198
326.800, 0.195
326.900, 0.201
327.000, 0.219
327.100, 0.199
327.200, 0.209
327.300, 0.185
327.400, 0.191
327.500, 0.210
327.600, 0.212
327.700, 0.205
327.800, 0.194
327.900, 0.183
328.000, 0.193
328.100, 0.231
328.200, 0.217
328.300, 0.205
328.400, 0.226
328.500, 0.248
328.600, 0.217
328.700, 0.228
328.800, 0.214
328.900, 0.196
329.000, 0.211
329.100, 0.184
329.200, 0.210
329.300, 0.186
329.400, 0.208
329.500, 0.199
329.600, 0.195
329.700, 0.194
329.800, 0.180
329.900, 0.194
330.000, 0.214
330.100, 0.173
330.200, 0.170
330.300, 0.196
330.400, 0.201
330.500, 0.193
330.600, 0.190
330.700, 0.181
330.800, 0.198
330.900, 0.196
331.000, 0.178
331.100, 0.181
331.200, 0.190
331.300, 0.199
331.400, 0.178
331.500, 0.157
331.600, 0.165
331.700, 0.161
331.800, 0.186
331.900, 0.186
332.000, 0.173
332.100, 0.182
332.200, 0.178
332.300, 0.162
332.400, 0.161
332.500, 0.161
332.600, 0.180
332.700, 0.166
332.800, 0.172
332.900, 0.190
333.000, 0.199
333.100, 0.218
333.200, 0.181
333.300, 0.198
333.400, 0.182
333.500, 0.173
333.600, 0.188
333.700, 0.165
333.800, 0.202
333.900, 0.223
334.000, 0.219
334.100, 0.214
334.200, 0.234
334.300, 0.197
334.400, 0.197
334.500, 0.196
334.600, 0.188
334.700, 0.208
334.800, 0.214
334.900, 0.224
335.000, 0.246
335.100, 0.220
335.200, 0.223
335.300, 0.225
335.400, 0.233
335.500, 0.224
335.600, 0.203
335.700, 0.219
335.800, 0.217
335.900, 0.218
336.000, 0.207
336.100, 0.206
336.200, 0.202
336.300, 0.218
336.400, 0.237
336.500, 0.220
336.600, 0.177
336.700, 0.240
336.800, 0.208
336.900, 0.210
337.000, 0.215
337.100, 0.207
337.200, 0.180
337.300, 0.198
337.400, 0.197
337.500, 0.197
337.600, 0.184
337.700, 0.195
337.800, 0.239
337.900, 0.255
338.000, 0.242
338.100, 0.222
338.200, 0.260
338.300, 0.211
338.400, 0.224
338.500, 0.186
338.600, 0.210
338.700, 0.211
338.800, 0.240
338.900, 0.215
339.000, 0.229
339.100, 0.223
339.200, 0.233
339.300, 0.239
339.400, 0.203
339.500, 0.197
339.600, 0.210
339.700, 0.196
339.800, 0.180
339.900, 0.175
340.000, 0.195
340.100, 0.210
340.200, 0.216
340.300, 0.188
340.400, 0.215
340.500, 0.211
340.600, 0.212
340.700, 0.212
340.800, 0.234
340.900, 0.200
341.000, 0.198
341.100, 0.200
341.200, 0.196
341.300, 0.226
341.400, 0.245
341.500, 0.221
341.600, 0.226
341.700, 0.234
341.800, 0.223
341.900, 0.207
342.000, 0.230
342.100, 0.221
342.200, 0.226
342.300, 0.241
342.400, 0.208
342.500, 0.196
342.600, 0.208
342.700, 0.178
342.800, 0.225
342.900, 0.177
343.000, 0.166
343.100, 0.195
343.200, 0.217
343.300, 0.208
343.400, 0.217
343.500, 0.211
343.600, 0.200
343.700, 0.200
343.800, 0.193
343.900, 0.183
344.000, 0.193
344.100, 0.231
344.200, 0.234
344.300, 0.191
344.400, 0.185
344.500, 0.220
344.600, 0.208
344.700, 0.212
344.800, 0.188
344.900, 0.203
345.000, 0.208
345.100, 0.238
345.200, 0.241
345.300, 0.210
345.400, 0.236
345.500, 0.197
345.600, 0.232
345.700, 0.237
345.800, 0.245
345.900, 0.229
346.000, 0.243
346.100, 0.217
346.200, 0.211
346.300, 0.246
346.400, 0.227
346.500, 0.222
346.600, 0.211
346.700, 0.225
346.800, 0.219
346.900, 0.211
347.000, 0.212
347.100, 0.235
347.200, 0.217
347.300, 0.208
347.400, 0.228
347.500, 0.214
347.600, 0.205
347.700, 0.191
347.800, 0.227
347.900, 0.206
348.000, 0.210
348.100, 0.205
348.200, 0.208
348.300, 0.215
348.400, 0.215
348.500, 0.252
348.600, 0.218
348.700, 0.206
348.800, 0.212
348.900, 0.184
349.000, 0.186
349.100, 0.217
349.200, 0.178
349.300, 0.196
349.400, 0.213
349.500, 0.197
349.600, 0.194
349.700, 0.225
349.800, 0.195
349.900, 0.209
350.000, 0.199
350.100, 0.201
350.200, 0.204
350.300, 0.211
350.400, 0.221
350.500, 0.227
350.600, 0.204
350.700, 0.222
350.800, 0.228
350.900, 0.196
351.000, 0.248
351.100, 0.197
351.200, 0.208
351.300, 0.199
351.400, 0.191
351.500, 0.195
351.600, 0.202
351.700, 0.191
351.800, 0.209
351.900, 0.229
352.000, 0.200
352.100, 0.218
352.200, 0.258
352.300, 0.199
352.400, 0.205
352.500, 0.240
352.600, 0.180
352.700, 0.184
352.800, 0.191
352.900, 0.169
353.000, 0.194
353.100, 0.194
353.200, 0.193
353.300, 0.210
353.400, 0.217
353.500, 0.219
353.600, 0.198
353.700, 0.199
353.800, 0.201
353.900, 0.216
354.000, 0.224
354.100, 0.232
354.200, 0.234
354.300, 0.211
354.400, 0.209
354.500, 0.253
354.600, 0.190
354.700, 0.204
354.800, 0.207
354.900, 0.216
355.000, 0.219
355.100, 0.217
355.200, 0.242
355.300, 0.216
355.400, 0.240
355.500, 0.227
355.600, 0.258
355.700, 0.222
355.800, 0.204
355.900, 0.229
356.000, 0.236
356.100, 0.232
356.200, 0.209
356.300, 0.209
356.400, 0.182
356.500, 0.195
356.600, 0.192
356.700, 0.212
356.800, 0.204
356.900, 0.187
357.000, 0.190
357.100, 0.199
357.200, 0.178
357.300, 0.185
357.400, 0.190
357.500, 0.187
357.600, 0.207
357.700, 0.197
357.800, 0.213
357.900, 0.234
358.000, 0.208
358.100, 0.189
358.200, 0.213
358.300, 0.214
358.400, 0.196
358.500, 0.207
358.600, 0.214
358.700, 0.217
358.800, 0.209
358.900, 0.196
359.000, 0.229
359.100, 0.258
359.200, 0.239
359.300, 0.225
359.400, 0.203
359.500, 0.238
359.600, 0.224
359.700, 0.203
359.800, 0.179
359.900, 0.171
360.000, 0.178
360.100, 0.214
360.200, 0.222
360.300, 0.230
360.400, 0.206
360.500, 0.202
360.600, 0.202
360.700, 0.174
360.800, 0.189
360.900, 0.191
361.000, 0.204
361.100, 0.202
361.200, 0.194
361.300, 0.195
361.400, 0.201
361.500, 0.199
361.600, 0.211
361.700, 0.209
361.800, 0.193
361.900, 0.179
362.000, 0.197
362.100, 0.200
362.200, 0.208
362.300, 0.169
362.400, 0.204
362.500, 0.201
362.600, 0.210
362.700, 0.199
362.800, 0.204
362.900, 0.175
363.000, 0.191
363.100, 0.175
363.200, 0.200
363.300, 0.200
363.400, 0.216
363.500, 0.202
363.600, 0.192
363.700, 0.191
363.800, 0.187
363.900, 0.200
364.000, 0.223
364.100, 0.225
364.200, 0.243
364.300, 0.238
364.400, 0.194
364.500, 0.189
364.600, 0.191
364.700, 0.193
364.800, 0.221
364.900, 0.213
365.000, 0.202
365.100, 0.208
365.200, 0.189
365.300, 0.200
365.400, 0.189
365.500, 0.193
365.600, 0.195
365.700, 0.211
365.800, 0.203
365.900, 0.206
366.000, 0.190
366.100, 0.172
366.200, 0.204
366.300, 0.178
366.400, 0.206
366.500, 0.217
366.600, 0.262
366.700, 0.221
366.800, 0.221
366.900, 0.224
367.000, 0.209
367.100, 0.235
367.200, 0.229
367.300, 0.205
367.400, 0.219
367.500, 0.240
367.600, 0.248
367.700, 0.253
367.800, 0.216
367.900, 0.212
368.000, 0.220
368.100, 0.236
368.200, 0.216
368.300, 0.197
368.400, 0.197
368.500, 0.193
368.600, 0.185
368.700, 0.176
368.800, 0.230
368.900, 0.211
369.000, 0.209
369.100, 0.199
369.200, 0.210
369.300, 0.204
369.400, 0.176
369.500, 0.206
369.600, 0.191
369.700, 0.207
369.800, 0.207
369.900, 0.192
370.000, 0.212
370.100, 0.194
370.200, 0.203
370.300, 0.195
370.400, 0.194
370.500, 0.211
370.600, 0.210
370.700, 0.211
370.800, 0.185
370.900, 0.189
371.000, 0.191
371.100, 0.197
371.200, 0.198
371.300, 0.204
371.400, 0.195
371.500, 0.218
371.600, 0.242
371.700, 0.242
371.800, 0.250
371.900, 0.263
372.000, 0.219
372.100, 0.219
372.200, 0.233
372.300, 0.219
372.400, 0.183
372.500, 0.207
372.600, 0.216
372.700, 0.206
372.800, 0.212
372.900, 0.187
373.000, 0.190
373.100, 0.183
373.200, 0.204
373.300, 0.210
373.400, 0.211
373.500, 0.175
373.600, 0.168
373.700, 0.179
373.800, 0.226
373.900, 0.205
374.000, 0.234
374.100, 0.223
374.200, 0.227
374.300, 0.234
374.400, 0.203
374.500, 0.246
374.600, 0.219
374.700, 0.171
374.800, 0.199
374.900, 0.175
375.000, 0.193
375.100, 0.211
375.200, 0.196
375.300, 0.206
375.400, 0.204
375.500, 0.157
375.600, 0.149
375.700, 0.153
375.800, 0.155
375.900, 0.158
376.000, 0.156
376.100, 0.145
376.200, 0.155
376.300, 0.150
376.400, 0.142
376.500, 0.142
376.600, 0.138
376.700, 0.148
376.800, 0.144
376.900, 0.138
377.000, 0.140
377.100, 0.138
377.200, 0.146
377.300, 0.145
377.400, 0.146
377.500, 0.155
377.600, 0.145
377.700, 0.175
377.800, 0.165
377.900, 0.149
378.000, 0.167
378.100, 0.167
378.200, 0.179
378.300, 0.179
378.400, 0.151
378.500, 0.169
378.600, 0.197
378.700, 0.213
378.800, 0.198
378.900, 0.182
379.000, 0.209
379.100, 0.187
379.200, 0.226
379.300, 0.196
379.400, 0.182
379.500, 0.175
379.600, 0.183
379.700, 0.188
379.800, 0.197
379.900, 0.217
380.000, 0.194
380.100, 0.187
380.200, 0.193
380.300, 0.188
380.400, 0.184
380.500, 0.175
380.600, 0.184
380.700, 0.205
380.800, 0.201
380.900, 0.211
381.000, 0.198
381.100, 0.199
381.200, 0.211
381.300, 0.204
381.400, 0.196
381.500, 0.181
381.600, 0.216
381.700, 0.210
381.800, 0.207
381.900, 0.201
382.000, 0.204
382.100, 0.200
382.200, 0.217
382.300, 0.204
382.400, 0.193
382.500, 0.179
382.600, 0.191
382.700, 0.184
382.800, 0.188
382.900, 0.187
383.000, 0.198
383.100, 0.187
383.200, 0.184
383.300, 0.203
383.400, 0.198
383.500, 0.208
383.600, 0.207
383.700, 0.188
383.800, 0.185
383.900, 0.202
384.000, 0.185
384.100, 0.189
384.200, 0.198
384.300, 0.190
384.400, 0.167
384.500, 0.197
384.600, 0.206
384.700, 0.201
384.800, 0.184
384.900, 0.207
385.000, 0.207
385.100, 0.264
385.200, 0.246
385.300, 0.242
385.400, 0.186
385.500, 0.183
385.600, 0.186
385.700, 0.190
385.800, 0.188
385.900, 0.210
386.000, 0.186
386.100, 0.198
386.200, 0.189
386.300, 0.180
386.400, 0.202
386.500, 0.190
386.600, 0.192
386.700, 0.186
386.800, 0.185
386.900, 0.190
387.000, 0.184
387.100, 0.220
387.200, 0.173
387.300, 0.180
387.400, 0.191
387.500, 0.203
387.600, 0.181
387.700, 0.196
387.800, 0.188
387.900, 0.183
388.000, 0.172
388.100, 0.168
388.200, 0.198
388.300, 0.177
388.400, 0.183
388.500, 0.189
388.600, 0.215
388.700, 0.179
388.800, 0.167
388.900, 0.193
389.000, 0.191
389.100, 0.193
389.200, 0.211
389.300, 0.208
389.400, 0.200
389.500, 0.200
389.600, 0.217
389.700, 0.220
389.800, 0.193
389.900, 0.199
390.000, 0.220
390.100, 0.216
390.200, 0.202
390.300, 0.216
390.400, 0.214
390.500, 0.215
390.600, 0.232
390.700, 0.216
390.800, 0.199
390.900, 0.222
391.000, 0.194
391.100, 0.183
391.200, 0.174
391.300, 0.189
391.400, 0.204
391.500, 0.207
391.600, 0.202
391.700, 0.187
391.800, 0.198
391.900, 0.224
392.000, 0.198
392.100, 0.188
392.200, 0.196
392.300, 0.190
392.400, 0.221
392.500, 0.236
392.600, 0.192
392.700, 0.210
392.800, 0.235
392.900, 0.213
393.000, 0.217
393.100, 0.205
393.200, 0.195
393.300, 0.227
393.400, 0.193
393.500, 0.174
393.600, 0.189
393.700, 0.179
393.800, 0.191
393.900, 0.195
394.000, 0.181
394.100, 0.197
394.200, 0.170
394.300, 0.177
394.400, 0.196
394.500, 0.193
394.600, 0.184
394.700, 0.216
394.800, 0.203
394.900, 0.192
395.000, 0.230
395.100, 0.194
395.200, 0.193
395.300, 0.205
395.400, 0.203
395.500, 0.202
395.600, 0.201
395.700, 0.206
395.800, 0.206
395.900, 0.202
396.000, 0.203
396.100, 0.224
396.200, 0.198
396.300, 0.203
396.400, 0.190
396.500, 0.176
396.600, 0.177
396.700, 0.162
396.800, 0.178
396.900, 0.184
397.000, 0.202
397.100, 0.184
397.200, 0.189
397.300, 0.167
397.400, 0.183
397.500, 0.190
397.600, 0.181
397.700, 0.191
397.800, 0.191
397.900, 0.198
398.000, 0.221
398.100, 0.203
398.200, 0.198
398.300, 0.169
398.400, 0.180
398.500, 0.191
398.600, 0.179
398.700, 0.187
398.800, 0.208
398.900, 0.198
399.000, 0.192
399.100, 0.178
399.200, 0.186
399.300, 0.197
399.400, 0.176
399.500, 0.176
399.600, 0.191
399.700, 0.183
399.800, 0.185
399.900, 0.212
400.000, 0.233
400.100, 0.214
400.200, 0.196
400.300, 0.217
400.400, 0.224
400.500, 0.199
400.600, 0.220
400.700, 0.197
400.800, 0.209
400.900, 0.200
401.000, 0.210
401.100, 0.205
401.200, 0.192
401.300, 0.212
401.400, 0.192
401.500, 0.192
401.600, 0.207
401.700, 0.223
401.800, 0.207
401.900, 0.217
402.000, 0.204
402.100, 0.225
402.200, 0.225
402.300, 0.204
402.400, 0.205
402.500, 0.181
402.600, 0.190
402.700, 0.198
402.800, 0.188
402.900, 0.189
403.000, 0.193
403.100, 0.189
403.200, 0.183
403.300, 0.201
403.400, 0.195
403.500, 0.172
403.600, 0.164
403.700, 0.174
403.800, 0.184
403.900, 0.181
404.000, 0.169
404.100, 0.161
404.200, 0.185
404.300, 0.160
404.400, 0.176
404.500, 0.171
404.600, 0.170
404.700, 0.172
404.800, 0.168
404.900, 0.176
405.000, 0.180
405.100, 0.205
405.200, 0.189
405.300, 0.215
405.400, 0.195
405.500, 0.194
405.600, 0.169
405.700, 0.181
405.800, 0.181
405.900, 0.187
406.000, 0.175
406.100, 0.207
406.200, 0.176
406.300, 0.172
406.400, 0.181
406.500, 0.179
406.600, 0.203
406.700, 0.202
406.800, 0.186
406.900, 0.180
407.000, 0.188
407.100, 0.176
407.200, 0.209
407.300, 0.206
407.400, 0.227
407.500, 0.236
407.600, 0.206
407.700, 0.195
407.800, 0.186
407.900, 0.175
408.000, 0.171
408.100, 0.166
408.200, 0.189
408.300, 0.177
408.400, 0.157
408.500, 0.153
408.600, 0.160
408.700, 0.171
408.800, 0.173
408.900, 0.192
409.000, 0.163
409.100, 0.172
409.200, 0.160
409.300, 0.173
409.400, 0.178
409.500, 0.182
409.600, 0.171
409.700, 0.156
409.800, 0.168
409.900, 0.178
410.000, 0.171
410.100, 0.162
410.200, 0.167
410.300, 0.203
410.400, 0.171
410.500, 0.180
410.600, 0.202
410.700, 0.188
410.800, 0.199
410.900, 0.171
411.000, 0.179
411.100, 0.187
411.200, 0.182
411.300, 0.221
411.400, 0.212
411.500, 0.233
411.600, 0.218
411.700, 0.205
411.800, 0.221
411.900, 0.213
412.000, 0.212
412.100, 0.229
412.200, 0.220
412.300, 0.207
412.400, 0.213
412.500, 0.217
412.600, 0.184
412.700, 0.192
412.800, 0.217
412.900, 0.214
413.000, 0.217
413.100, 0.199
413.200, 0.206
413.300, 0.184
413.400, 0.197
413.500, 0.232
413.600, 0.172
413.700, 0.199
413.800, 0.181
413.900, 0.207
414.000, 0.216
414.100, 0.242
414.200, 0.236
414.300, 0.206
414.400, 0.209
414.500, 0.228
414.600, 0.220
414.700, 0.216
414.800, 0.225
414.900, 0.207
415.000, 0.205
415.100, 0.208
415.200, 0.208
415.300, 0.179
415.400, 0.187
415.500, 0.191
415.600, 0.176
415.700, 0.200
415.800, 0.196
415.900, 0.180
416.000, 0.218
416.100, 0.204
416.200, 0.208
416.300, 0.182
416.400, 0.218
416.500, 0.190
416.600, 0.201
416.700, 0.191
416.800, 0.184
416.900, 0.170
417.000, 0.215
417.100, 0.201
417.200, 0.198
417.300, 0.230
417.400, 0.211
417.500, 0.215
417.600, 0.238
417.700, 0.201
417.800, 0.184
417.900, 0.222
418.000, 0.226
418.100, 0.187
418.200, 0.190
418.300, 0.203
418.400, 0.183
418.500, 0.190
418.600, 0.205
418.700, 0.193
418.800, 0.207
418.900, 0.198
419.000, 0.191
419.100, 0.187
419.200, 0.190
419.300, 0.201
419.400, 0.221
419.500, 0.186
419.600, 0.197
419.700, 0.197
419.800, 0.198
419.900, 0.223
420.000, 0.190
420.100, 0.197
420.200, 0.201
420.300, 0.203
420.400, 0.204
420.500, 0.205
420.600, 0.191
420.700, 0.217
420.800, 0.201
420.900, 0.214
421.000, 0.221
421.100, 0.190
421.200, 0.233
421.300, 0.219
421.400, 0.222
421.500, 0.204
421.600, 0.200
421.700, 0.186
421.800, 0.217
421.900, 0.198
422.000, 0.205
422.100, 0.179
422.200, 0.182
422.300, 0.182
422.400, 0.183
422.500, 0.182
422.600, 0.177
422.700, 0.198
422.800, 0.200
422.900, 0.199
423.000, 0.178
423.100, 0.177
423.200, 0.191
423.300, 0.182
423.400, 0.191
423.500, 0.212
423.600, 0.184
423.700, 0.176
423.800, 0.190
423.900, 0.181
424.000, 0.174
424.100, 0.172
424.200, 0.174
424.300, 0.172
424.400, 0.169
424.500, 0.182
424.600, 0.184
424.700, 0.193
424.800, 0.199
424.900, 0.161
425.000, 0.172
425.100, 0.170
425.200, 0.187
425.300, 0.208
425.400, 0.174
425.500, 0.179
425.600, 0.192
425.700, 0.176
425.800, 0.185
425.900, 0.179
426.000, 0.213
426.100, 0.178
426.200, 0.216
426.300, 0.211
426.400, 0.206
426.500, 0.197
426.600, 0.216
426.700, 0.201
426.800, 0.186
426.900, 0.203
427.000, 0.202
427.100, 0.207
427.200, 0.246
427.300, 0.196
427.400, 0.198
427.500, 0.192
427.600, 0.217
427.700, 0.204
427.800, 0.203
427.900, 0.209
428.000, 0.219
428.100, 0.209
428.200, 0.194
428.300, 0.215
428.400, 0.204
428.500, 0.201
428.600, 0.204
428.700, 0.215
428.800, 0.224
428.900, 0.220
429.000, 0.219
429.100, 0.210
429.200, 0.221
429.300, 0.204
429.400, 0.219
429.500, 0.212
429.600, 0.194
429.700, 0.212
429.800, 0.210
429.900, 0.193
430.000, 0.242
430.100, 0.245
430.200, 0.212
430.300, 0.200
430.400, 0.207
430.500, 0.192
430.600, 0.190
430.700, 0.201
430.800, 0.206
430.900, 0.219
431.000, 0.197
431.100, 0.190
431.200, 0.193
431.300, 0.210
431.400, 0.202
431.500, 0.204
431.600, 0.198
431.700, 0.195
431.800, 0.233
431.900, 0.208
432.000, 0.216
432.100, 0.189
432.200, 0.189
432.300, 0.218
432.400, 0.225
432.500, 0.221
432.600, 0.217
432.700, 0.207
432.800, 0.216
432.900, 0.212
433.000, 0.212
433.100, 0.197
433.200, 0.217
433.300, 0.215
433.400, 0.182
433.500, 0.193
433.600, 0.194
433.700, 0.200
433.800, 0.196
433.900, 0.186
434.000, 0.214
434.100, 0.196
434.200, 0.192
434.300, 0.215
434.400, 0.187
434.500, 0.197
434.600, 0.198
434.700, 0.195
434.800, 0.219
434.900, 0.201
435.000, 0.224
435.100, 0.215
435.200, 0.238
435.300, 0.210
435.400, 0.191
435.500, 0.210
435.600, 0.198
435.700, 0.192
435.800, 0.192
435.900, 0.181
436.000, 0.173
436.100, 0.183
436.200, 0.187
436.300, 0.217
436.400, 0.192
436.500, 0.203
436.600, 0.205
436.700, 0.200
436.800, 0.190
436.900, 0.182
437.000, 0.197
437.100, 0.220
437.200, 0.214
437.300, 0.195
437.400, 0.194
437.500, 0.223
437.600, 0.201
437.700, 0.205
437.800, 0.197
437.900, 0.198
438.000, 0.215
438.100, 0.179
438.200, 0.191
438.300, 0.187
438.400, 0.197
438.500, 0.212
438.600, 0.196
438.700, 0.206
438.800, 0.200
438.900, 0.247
439.000, 0.207
439.100, 0.211
439.200, 0.196
439.300, 0.216
439.400, 0.190
439.500, 0.220
439.600, 0.197
439.700, 0.199
439.800, 0.178
439.900, 0.197
440.000, 0.203
440.100, 0.208
440.200, 0.212
440.300, 0.198
440.400, 0.221
440.500, 0.215
440.600, 0.220
440.700, 0.218
440.800, 0.213
440.900, 0.231
441.000, 0.225
441.100, 0.232
441.200, 0.239
441.300, 0.239
441.400, 0.236
441.500, 0.219
441.600, 0.232
441.700, 0.210
441.800, 0.192
441.900, 0.207
442.000, 0.190
442.100, 0.222
442.200, 0.197
442.300, 0.205
442.400, 0.199
442.500, 0.177
442.600, 0.191
442.700, 0.198
442.800, 0.194
442.900, 0.178
443.000, 0.196
443.100, 0.195
443.200, 0.200
443.300, 0.190
443.400, 0.177
443.500, 0.188
443.600, 0.203
443.700, 0.192
443.800, 0.195
443.900, 0.200
444.000, 0.208
444.100, 0.197
444.200, 0.200
444.300, 0.190
444.400, 0.175
444.500, 0.197
444.600, 0.199
444.700, 0.198
444.800, 0.197
444.900, 0.196
445.000, 0.197
445.100, 0.211
445.200, 0.251
445.300, 0.220
445.400, 0.212
445.500, 0.207
445.600, 0.197
445.700, 0.209
445.800, 0.215
445.900, 0.177
446.000, 0.221
446.100, 0.212
446.200, 0.204
446.300, 0.194
446.400, 0.178
446.500, 0.200
446.600, 0.191
446.700, 0.193
446.800, 0.193
446.900, 0.190
447.000, 0.227
447.100, 0.217
447.200, 0.214
447.300, 0.216
447.400, 0.209
447.500, 0.225
447.600, 0.225
447.700, 0.225
447.800, 0.206
447.900, 0.202
448.000, 0.202
448.100, 0.192
448.200, 0.207
448.300, 0.221
448.400, 0.215
448.500, 0.208
448.600, 0.193
448.700, 0.209
448.800, 0.231
448.900, 0.224
449.000, 0.216
449.100, 0.211
449.200, 0.204
449.300, 0.202
449.400, 0.204
449.500, 0.209
449.600, 0.216
449.700, 0.222
449.800, 0.200
449.900, 0.215
450.000, 0.228
450.100, 0.224
450.200, 0.236
450.300, 0.237
450.400, 0.208
450.500, 0.221
450.600, 0.236
450.700, 0.227
450.800, 0.217
450.900, 0.243
451.000, 0.240
451.100, 0.218
451.200, 0.194
451.300, 0.219
451.400, 0.232
451.500, 0.218
451.600, 0.196
451.700, 0.207
451.800, 0.211
451.900, 0.184
452.000, 0.214
452.100, 0.185
452.200, 0.178
452.300, 0.217
452.400, 0.210
452.500, 0.198
452.600, 0.217
452.700, 0.217
452.800, 0.211
452.900, 0.227
453.000, 0.250
453.100, 0.231
453.200, 0.222
453.300, 0.203
453.400, 0.215
453.500, 0.205
453.600, 0.197
453.700, 0.209
453.800, 0.204
453.900, 0.203
454.000, 0.159
454.100, 0.210
454.200, 0.193
454.300, 0.178
454.400, 0.174
454.500, 0.193
454.600, 0.194
454.700, 0.180
454.800, 0.184
454.900, 0.191
455.000, 0.217
455.100, 0.196
455.200, 0.198
455.300, 0.173
455.400, 0.194
455.500, 0.174
455.600, 0.216
455.700, 0.212
455.800, 0.190
455.900, 0.208
456.000, 0.203
456.100, 0.215
456.200, 0.191
456.300, 0.182
456.400, 0.194
456.500, 0.181
456.600, 0.197
456.700, 0.202
456.800, 0.192
456.900, 0.198
457.000, 0.165
457.100, 0.181
457.200, 0.174
457.300, 0.179
457.400, 0.199
457.500, 0.186
457.600, 0.196
457.700, 0.199
457.800, 0.213
457.900, 0.185
458.000, 0.202
458.100, 0.237
458.200, 0.229
458.300, 0.213
458.400, 0.184
458.500, 0.182
458.600, 0.185
458.700, 0.198
458.800, 0.202
458.900, 0.199
459.000, 0.204
459.100, 0.208
459.200, 0.199
459.300, 0.207
459.400, 0.185
459.500, 0.208
459.600, 0.200
459.700, 0.209
459.800, 0.184
459.900, 0.201
460.000, 0.198
460.100, 0.206
460.200, 0.199
460.300, 0.194
460.400, 0.200
460.500, 0.182
460.600, 0.175
460.700, 0.187
460.800, 0.178
460.900, 0.178
461.000, 0.184
461.100, 0.179
461.200, 0.177
461.300, 0.198
461.400, 0.201
461.500, 0.183
461.600, 0.185
461.700, 0.183
461.800, 0.170
461.900, 0.182
462.000, 0.180
462.100, 0.218
462.200, 0.227
462.300, 0.215
462.400, 0.182
462.500, 0.187
462.600, 0.212
462.700, 0.214
462.800, 0.183
462.900, 0.199
463.000, 0.198
463.100, 0.212
463.200, 0.223
463.300, 0.197
463.400, 0.181
463.500, 0.165
463.600, 0.214
463.700, 0.195
463.800, 0.204
463.900, 0.197
464.000, 0.196
464.100, 0.203
464.200, 0.199
464.300, 0.179
464.400, 0.205
464.500, 0.195
464.600, 0.202
464.700, 0.189
464.800, 0.207
464.900, 0.207
465.000, 0.216
465.100, 0.196
465.200, 0.195
465.300, 0.221
465.400, 0.214
465.500, 0.204
465.600, 0.208
465.700, 0.178
465.800, 0.171
465.900, 0.178
466.000, 0.171
466.100, 0.175
466.200, 0.190
466.300, 0.182
466.400, 0.184
466.500, 0.170
466.600, 0.146
466.700, 0.145
466.800, 0.174
466.900, 0.179
467.000, 0.154
467.100, 0.148
467.200, 0.170
467.300, 0.171
467.400, 0.167
467.500, 0.176
467.600, 0.184
467.700, 0.194
467.800, 0.207
467.900, 0.183
468.000, 0.173
468.100, 0.194
468.200, 0.187
468.300, 0.185
468.400, 0.183
468.500, 0.184
468.600, 0.181
468.700, 0.182
468.800, 0.186
468.900, 0.193
469.000, 0.215
469.100, 0.198
469.200, 0.201
469.300, 0.201
469.400, 0.194
469.500, 0.192
469.600, 0.205
469.700, 0.227
469.800, 0.229
469.900, 0.214
470.000, 0.225
470.100, 0.202
470.200, 0.200
470.300, 0.205
470.400, 0.207
470.500, 0.217
470.600, 0.223
470.700, 0.214
470.800, 0.223
470.900, 0.213
471.000, 0.193
471.100, 0.199
471.200, 0.214
471.300, 0.234
471.400, 0.222
471.500, 0.206
471.600, 0.202
471.700, 0.220
471.800, 0.188
471.900, 0.210
472.000, 0.202
472.100, 0.196
472.200, 0.230
472.300, 0.244
472.400, 0.230
472.500, 0.214
472.600, 0.211
472.700, 0.204
472.800, 0.208
472.900, 0.205
473.000, 0.200
473.100, 0.208
473.200, 0.217
473.300, 0.222
473.400, 0.219
473.500, 0.228
473.600, 0.205
473.700, 0.224
473.800, 0.219
473.900, 0.187
474.000, 0.216
474.100, 0.234
474.200, 0.198
474.300, 0.206
474.400, 0.205
474.500, 0.216
474.600, 0.204
474.700, 0.224
474.800, 0.205
474.900, 0.210
475.000, 0.216
475.100, 0.215
475.200, 0.224
475.300, 0.218
475.400, 0.215
475.500, 0.216
475.600, 0.198
475.700, 0.212
475.800, 0.217
475.900, 0.200
476.000, 0.184
476.100, 0.207
476.200, 0.189
476.300, 0.197
476.400, 0.201
476.500, 0.221
476.600, 0.194
476.700, 0.210
476.800, 0.194
476.900, 0.194
477.000, 0.199
477.100, 0.183
477.200, 0.196
477.300, 0.208
477.400, 0.222
477.500, 0.196
477.600, 0.202
477.700, 0.213
477.800, 0.197
477.900, 0.192
478.000, 0.185
478.100, 0.222
478.200, 0.191
478.300, 0.186
478.400, 0.168
478.500, 0.187
478.600, 0.207
478.700, 0.177
478.800, 0.173
478.900, 0.159
479.000, 0.186
479.100, 0.210
479.200, 0.181
479.300, 0.192
479.400, 0.194
479.500, 0.194
479.600, 0.188
479.700, 0.199
479.800, 0.206
479.900, 0.190
480.000, 0.206
480.100, 0.179
480.200, 0.191
480.300, 0.203
480.400, 0.209
480.500, 0.213
480.600, 0.202
480.700, 0.201
480.800, 0.192
480.900, 0.171
481.000, 0.197
481.100, 0.180
481.200, 0.174
481.300, 0.184
481.400, 0.185
481.500, 0.184
481.600, 0.213
481.700, 0.218
481.800, 0.225
481.900, 0.238
482.000, 0.217
482.100, 0.197
482.200, 0.194
482.300, 0.190
482.400, 0.193
482.500, 0.192
482.600, 0.195
482.700, 0.196
482.800, 0.196
482.900, 0.204
483.000, 0.208
483.100, 0.193
483.200, 0.171
483.300, 0.158
483.400, 0.177
483.500, 0.182
483.600, 0.157
483.700, 0.162
483.800, 0.193
483.900, 0.175
484.000, 0.195
484.100, 0.203
484.200, 0.180
484.300, 0.195
484.400, 0.180
484.500, 0.191
484.600, 0.197
484.700, 0.196
484.800, 0.206
484.900, 0.213
485.000, 0.196
485.100, 0.206
485.200, 0.202
485.300, 0.211
485.400, 0.224
485.500, 0.232
485.600, 0.195
485.700, 0.200
485.800, 0.214
485.900, 0.212
486.000, 0.208
486.100, 0.227
486.200, 0.220
486.300, 0.195
486.400, 0.217
486.500, 0.231
486.600, 0.216
486.700, 0.216
486.800, 0.210
486.900, 0.194
487.000, 0.189
487.100, 0.176
487.200, 0.189
487.300, 0.193
487.400, 0.184
487.500, 0.175
487.600, 0.184
487.700, 0.186
487.800, 0.209
487.900, 0.203
488.000, 0.201
488.100, 0.191
488.200, 0.184
488.300, 0.198
488.400, 0.209
488.500, 0.206
488.600, 0.204
488.700, 0.202
488.800, 0.234
488.900, 0.226
489.000, 0.193
489.100, 0.197
489.200, 0.196
489.300, 0.212
489.400, 0.204
489.500, 0.197
489.600, 0.225
489.700, 0.225
489.800, 0.203
489.900, 0.224
490.000, 0.218
490.100, 0.211
490.200, 0.212
490.300, 0.207
490.400, 0.200
490.500, 0.185
490.600, 0.188
490.700, 0.175
490.800, 0.181
490.900, 0.189
491.000, 0.189
491.100, 0.179
491.200, 0.202
491.300, 0.185
491.400, 0.186
491.500, 0.204
491.600, 0.194
491.700, 0.173
491.800, 0.165
491.900, 0.180
492.000, 0.164
492.100, 0.185
492.200, 0.184
492.300, 0.195
492.400, 0.193
492.500, 0.171
492.600, 0.155
492.700, 0.183
492.800, 0.182
492.900, 0.180
493.000, 0.161
493.100, 0.163
493.200, 0.159
493.300, 0.171
493.400, 0.163
493.500, 0.189
493.600, 0.181
493.700, 0.194
493.800, 0.198
493.900, 0.208
494.000, 0.183
494.100, 0.155
494.200, 0.163
494.300, 0.187
494.400, 0.179
494.500, 0.200
494.600, 0.195
494.700, 0.205
494.800, 0.184
494.900, 0.172
495.000, 0.203
495.100, 0.200
495.200, 0.195
495.300, 0.185
495.400, 0.177
495.500, 0.175
495.600, 0.164
495.700, 0.193
495.800, 0.173
495.900, 0.162
496.000, 0.172
496.100, 0.173
496.200, 0.159
496.300, 0.152
496.400, 0.150
496.500, 0.166
496.600, 0.183
496.700, 0.166
496.800, 0.144
496.900, 0.176
497.000, 0.177
497.100, 0.183
497.200, 0.192
497.300, 0.179
497.400, 0.197
497.500, 0.190
497.600, 0.189
497.700, 0.209
497.800, 0.205
497.900, 0.200
498.000, 0.209
498.100, 0.211
498.200, 0.200
498.300, 0.187
498.400, 0.189
498.500, 0.200
498.600, 0.200
498.700, 0.180
498.800, 0.204
498.900, 0.207
499.000, 0.201
499.100, 0.199
499.200, 0.191
499.300, 0.200
499.400, 0.217
499.500, 0.235
499.600, 0.218
499.700, 0.204
499.800, 0.195
499.900, 0.207
500.000, 0.241
500.100, 0.193
500.200, 0.182
500.300, 0.181
500.400, 0.193
500.500, 0.184
500.600, 0.219
500.700, 0.227
500.800, 0.215
500.900, 0.224
501.000, 0.183
501.100, 0.183
501.200, 0.205
501.300, 0.188
501.400, 0.204
501.500, 0.208
501.600, 0.179
501.700, 0.178
501.800, 0.194
501.900, 0.188
502.000, 0.189
502.100, 0.186
502.200, 0.202
502.300, 0.179
502.400, 0.186
502.500, 0.214
502.600, 0.181
502.700, 0.212
502.800, 0.202
502.900, 0.200
503.000, 0.178
503.100, 0.193
503.200, 0.214
503.300, 0.188
503.400, 0.189
503.500, 0.193
503.600, 0.208
503.700, 0.196
503.800, 0.194
503.900, 0.179
504.000, 0.172
504.100, 0.180
504.200, 0.177
504.300, 0.202
504.400, 0.205
504.500, 0.193
504.600, 0.178
504.700, 0.201
504.800, 0.190
504.900, 0.207
505.000, 0.210
505.100, 0.193
505.200, 0.181
505.300, 0.187
505.400, 0.227
505.500, 0.195
505.600, 0.184
505.700, 0.193
505.800, 0.164
505.900, 0.170
506.000, 0.168
506.100, 0.185
506.200, 0.178
506.300, 0.193
506.400, 0.193
506.500, 0.183
506.600, 0.175
506.700, 0.197
506.800, 0.191
506.900, 0.204
507.000, 0.195
507.100, 0.193
507.200, 0.203
507.300, 0.206
507.400, 0.218
507.500, 0.224
507.600, 0.185
507.700, 0.205
507.800, 0.205
507.900, 0.208
508.000, 0.199
508.100, 0.231
508.200, 0.216
508.300, 0.215
508.400, 0.205
508.500, 0.226
508.600, 0.223
508.700, 0.190
508.800, 0.227
508.900, 0.245
509.000, 0.210
509.100, 0.215
509.200, 0.207
509.300, 0.189
509.400, 0.200
509.500, 0.224
509.600, 0.219
509.700, 0.191
509.800, 0.203
509.900, 0.192
510.000, 0.253
510.100, 0.205
510.200, 0.212
510.300, 0.189
510.400, 0.197
510.500, 0.190
510.600, 0.207
510.700, 0.225
510.800, 0.200
510.900, 0.242
511.000, 0.223
511.100, 0.201
511.200, 0.211
511.300, 0.222
511.400, 0.226
511.500, 0.216
511.600, 0.214
511.700, 0.209
511.800, 0.200
511.900, 0.187
512.000, 0.194
512.100, 0.212
512.200, 0.200
512.300, 0.187
512.400, 0.196
512.500, 0.184
512.600, 0.162
512.700, 0.192
512.800, 0.177
512.900, 0.192
513.000, 0.191
513.100, 0.181
513.200, 0.192
513.300, 0.193
513.400, 0.179
513.500, 0.179
513.600, 0.187
513.700, 0.177
513.800, 0.197
513.900, 0.193
514.000, 0.209
514.100, 0.200
514.200, 0.207
514.300, 0.236
514.400, 0.198
514.500, 0.207
514.600, 0.203
514.700, 0.200
514.800, 0.184
514.900, 0.179
515.000, 0.156
515.100, 0.164
515.200, 0.186
515.300, 0.214
515.400, 0.221
515.500, 0.198
515.600, 0.165
515.700, 0.172
515.800, 0.170
515.900, 0.156
516.000, 0.157
516.100, 0.148
516.200, 0.157
516.300, 0.163
516.400, 0.169
516.500, 0.164
516.600, 0.158
516.700, 0.160
516.800, 0.187
516.900, 0.179
517.000, 0.197
517.100, 0.195
517.200, 0.202
517.300, 0.197
517.400, 0.186
517.500, 0.181
517.600, 0.195
517.700, 0.168
517.800, 0.204
517.900, 0.222
518.000, 0.194
518.100, 0.188
518.200, 0.189
518.300, 0.192
518.400, 0.196
518.500, 0.178
518.600, 0.185
518.700, 0.198
518.800, 0.172
518.900, 0.170
519.000, 0.162
519.100, 0.196
519.200, 0.176
519.300, 0.186
519.400, 0.178
519.500, 0.165
519.600, 0.169
519.700, 0.183
519.800, 0.191
519.900, 0.187
520.000, 0.169
520.100, 0.169
520.200, 0.174
520.300, 0.194
520.400, 0.199
520.500, 0.214
520.600, 0.204
520.700, 0.204
520.800, 0.202
520.900, 0.191
521.000, 0.196
521.100, 0.208
521.200, 0.206
521.300, 0.207
521.400, 0.215
521.500, 0.202
521.600, 0.185
521.700, 0.225
521.800, 0.243
521.900, 0.241
522.000, 0.239
522.100, 0.243
522.200, 0.217
522.300, 0.220
522.400, 0.229
522.500, 0.225
522.600, 0.217
522.700, 0.202
522.800, 0.205
522.900, 0.192
523.000, 0.221
523.100, 0.219
523.200, 0.212
523.300, 0.202
523.400, 0.197
523.500, 0.196
523.600, 0.210
523.700, 0.202
523.800, 0.235
523.900, 0.208
524.000, 0.218
524.100, 0.194
524.200, 0.213
524.300, 0.196
524.400, 0.189
524.500, 0.193
524.600, 0.231
524.700, 0.199
524.800, 0.206
524.900, 0.207
525.000, 0.199
525.100, 0.193
525.200, 0.197
525.300, 0.202
525.400, 0.198
525.500, 0.205
525.600, 0.208
525.700, 0.199
525.800, 0.212
525.900, 0.206
526.000, 0.212
526.100, 0.228
526.200, 0.221
526.300, 0.219
526.400, 0.231
526.500, 0.235
526.600, 0.241
526.700, 0.210
526.800, 0.219
526.900, 0.226
527.000, 0.207
527.100, 0.234
527.200, 0.234
527.300, 0.238
527.400, 0.210
527.500, 0.220
527.600, 0.195
527.700, 0.216
527.800, 0.211
527.900, 0.207
528.000, 0.214
528.100, 0.202
528.200, 0.232
528.300, 0.215
528.400, 0.207
528.500, 0.207
528.600, 0.218
528.700, 0.209
528.800, 0.199
528.900, 0.204
529.000, 0.193
529.100, 0.204
529.200, 0.189
529.300, 0.182
529.400, 0.201
529.500, 0.194
529.600, 0.227
529.700, 0.206
529.800, 0.242
529.900, 0.212
530.000, 0.182
530.100, 0.193
530.200, 0.224
530.300, 0.197
530.400, 0.213
530.500, 0.210
530.600, 0.163
530.700, 0.196
530.800, 0.158
530.900, 0.188
531.000, 0.147
531.100, 0.171
531.200, 0.193
531.300, 0.185
531.400, 0.212
531.500, 0.202
531.600, 0.217
531.700, 0.218
531.800, 0.199
531.900, 0.194
532.000, 0.236
532.100, 0.198
532.200, 0.189
532.300, 0.197
532.400, 0.182
532.500, 0.179
532.600, 0.214
532.700, 0.205
532.800, 0.206
532.900, 0.201
533.000, 0.194
533.100, 0.157
533.200, 0.185
533.300, 0.169
533.400, 0.189
533.500, 0.192
533.600, 0.181
533.700, 0.157
533.800, 0.149
533.900, 0.178
534.000, 0.183
534.100, 0.168
534.200, 0.175
534.300, 0.158
534.400, 0.180
534.500, 0.181
534.600, 0.178
534.700, 0.194
534.800, 0.180
534.900, 0.156
535.000, 0.175
535.100, 0.191
535.200, 0.182
535.300, 0.167
535.400, 0.181
535.500, 0.187
535.600, 0.191
535.700, 0.195
535.800, 0.174
535.900, 0.163
536.000, 0.184
536.100, 0.199
536.200, 0.201
536.300, 0.211
536.400, 0.236
536.500, 0.227
536.600, 0.194
536.700, 0.197
536.800, 0.194
536.900, 0.194
537.000, 0.235
537.100, 0.215
537.200, 0.211
537.300, 0.212
537.400, 0.193
537.500, 0.205
537.600, 0.197
537.700, 0.214
537.800, 0.226
537.900, 0.199
538.000, 0.225
538.100, 0.216
538.200, 0.228
538.300, 0.210
538.400, 0.201
538.500, 0.166
538.600, 0.200
538.700, 0.216
538.800, 0.216
538.900, 0.220
539.000, 0.221
539.100, 0.216
539.200, 0.210
539.300, 0.221
539.400, 0.236
539.500, 0.219
539.600, 0.227
539.700, 0.212
539.800, 0.242
539.900, 0.246
540.000, 0.239
540.100, 0.236
540.200, 0.241
540.300, 0.221
540.400, 0.190
540.500, 0.228
540.600, 0.195
540.700, 0.183
540.800, 0.213
540.900, 0.217
541.000, 0.203
541.100, 0.204
541.200, 0.216
541.300, 0.197
541.400, 0.177
541.500, 0.196
541.600, 0.201
541.700, 0.211
541.800, 0.184
541.900, 0.201
542.000, 0.185
542.100, 0.184
542.200, 0.182
542.300, 0.177
542.400, 0.177
542.500, 0.144
542.600, 0.155
542.700, 0.142
542.800, 0.140
542.900, 0.167
543.000, 0.143
543.100, 0.144
543.200, 0.162
543.300, 0.152
543.400, 0.137
543.500, 0.154
543.600, 0.161
543.700, 0.169
543.800, 0.191
543.900, 0.181
544.000, 0.173
544.100, 0.155
544.200, 0.164
544.300, 0.163
544.400, 0.179
544.500, 0.161
544.600, 0.171
544.700, 0.166
544.800, 0.167
544.900, 0.162
545.000, 0.171
545.100, 0.172
545.200, 0.169
545.300, 0.159
545.400, 0.148
545.500, 0.163
545.600, 0.171
545.700, 0.164
545.800, 0.153
545.900, 0.167
546.000, 0.169
546.100, 0.155
546.200, 0.151
546.300, 0.150
546.400, 0.161
546.500, 0.164
546.600, 0.198
546.700, 0.197
546.800, 0.212
546.900, 0.190
547.000, 0.179
547.100, 0.206
547.200, 0.218
547.300, 0.200
547.400, 0.200
547.500, 0.194
547.600, 0.208
547.700, 0.207
547.800, 0.175
547.900, 0.183
548.000, 0.188
548.100, 0.170
548.200, 0.192
548.300, 0.195
548.400, 0.214
548.500, 0.205
548.600, 0.183
548.700, 0.192
548.800, 0.211
548.900, 0.189
549.000, 0.178
549.100, 0.181
549.200, 0.176
549.300, 0.169
549.400, 0.176
549.500, 0.208
549.600, 0.183
549.700, 0.206
549.800, 0.173
549.900, 0.172
550.000, 0.169
550.100, 0.167
550.200, 0.157
550.300, 0.186
550.400, 0.202
550.500, 0.188
550.600, 0.174
550.700, 0.196
550.800, 0.172
550.900, 0.160
551.000, 0.167
551.100, 0.185
551.200, 0.150
551.300, 0.174
551.400, 0.196
551.500, 0.180
551.600, 0.194
551.700, 0.189
551.800, 0.196
551.900, 0.190
552.000, 0.193
552.100, 0.206
552.200, 0.221
552.300, 0.197
552.400, 0.205
552.500, 0.186
552.600, 0.196
552.700, 0.208
552.800, 0.214
552.900, 0.214
553.000, 0.204
553.100, 0.212
553.200, 0.228
553.300, 0.225
553.400, 0.198
553.500, 0.200
553.600, 0.208
553.700, 0.224
553.800, 0.198
553.900, 0.207
554.000, 0.229
554.100, 0.231
554.200, 0.226
554.300, 0.202
554.400, 0.180
554.500, 0.206
554.600, 0.193
554.700, 0.204
554.800, 0.216
554.900, 0.207
555.000, 0.209
555.100, 0.201
555.200, 0.206
555.300, 0.189
555.400, 0.228
555.500, 0.231
555.600, 0.228
555.700, 0.186
555.800, 0.228
555.900, 0.217
556.000, 0.206
556.100, 0.228
556.200, 0.208
556.300, 0.247
556.400, 0.236
556.500, 0.255
556.600, 0.248
556.700, 0.229
556.800, 0.209
556.900, 0.234
557.000, 0.194
557.100, 0.193
557.200, 0.233
557.300, 0.233
557.400, 0.236
557.500, 0.213
557.600, 0.228
557.700, 0.247
557.800, 0.197
557.900, 0.178
558.000, 0.182
558.100, 0.171
558.200, 0.178
558.300, 0.170
558.400, 0.190
558.500, 0.179
558.600, 0.210
558.700, 0.218
558.800, 0.222
558.900, 0.217
559.000, 0.203
559.100, 0.229
559.200, 0.204
559.300, 0.170
559.400, 0.194
559.500, 0.207
559.600, 0.214
559.700, 0.200
559.800, 0.192
559.900, 0.199
560.000, 0.196
560.100, 0.209
560.200, 0.233
560.300, 0.267
560.400, 0.249
560.500, 0.237
560.600, 0.206
560.700, 0.240
560.800, 0.232
560.900, 0.211
561.000, 0.240
561.100, 0.235
561.200, 0.224
561.300, 0.247
561.400, 0.257
561.500, 0.211
561.600, 0.187
561.700, 0.259
561.800, 0.232
561.900, 0.244
562.000, 0.224
562.100, 0.228
562.200, 0.240
562.300, 0.217
562.400, 0.215
562.500, 0.207
562.600, 0.217
562.700, 0.225
562.800, 0.206
562.900, 0.212
563.000, 0.210
563.100, 0.222
563.200, 0.205
563.300, 0.200
563.400, 0.195
563.500, 0.203
563.600, 0.213
563.700, 0.208
563.800, 0.216
563.900, 0.203
564.000, 0.208
564.100, 0.204
564.200, 0.201
564.300, 0.196
564.400, 0.205
564.500, 0.200
564.600, 0.183
564.700, 0.206
564.800, 0.227
564.900, 0.229
565.000, 0.192
565.100, 0.206
565.200, 0.219
565.300, 0.195
565.400, 0.200
565.500, 0.210
565.600, 0.197
565.700, 0.165
565.800, 0.173
565.900, 0.191
566.000, 0.181
566.100, 0.189
566.200, 0.189
566.300, 0.185
566.400, 0.177
566.500, 0.180
566.600, 0.179
566.700, 0.170
566.800, 0.181
566.900, 0.173
567.000, 0.171
567.100, 0.182
567.200, 0.186
567.300, 0.218
567.400, 0.187
567.500, 0.224
567.600, 0.185
567.700, 0.208
567.800, 0.211
567.900, 0.218
568.000, 0.216
568.100, 0.219
568.200, 0.219
568.300, 0.231
568.400, 0.227
568.500, 0.212
568.600, 0.220
568.700, 0.207
568.800, 0.212
568.900, 0.198
569.000, 0.199
569.100, 0.183
569.200, 0.194
569.300, 0.198
569.400, 0.202
569.500, 0.198
569.600, 0.208
569.700, 0.189
569.800, 0.186
569.900, 0.219
570.000, 0.188
570.100, 0.192
570.200, 0.201
570.300, 0.179
570.400, 0.207
570.500, 0.192
570.600, 0.226
570.700, 0.199
570.800, 0.190
570.900, 0.198
571.000, 0.205
571.100, 0.216
571.200, 0.210
571.300, 0.200
571.400, 0.207
571.500, 0.221
571.600, 0.215
571.700, 0.194
571.800, 0.203
571.900, 0.203
572.000, 0.208
572.100, 0.216
572.200, 0.200
572.300, 0.210
572.400, 0.214
572.500, 0.200
572.600, 0.191
572.700, 0.200
572.800, 0.186
572.900, 0.233
573.000, 0.219
573.100, 0.192
573.200, 0.197
573.300, 0.191
573.400, 0.184
573.500, 0.198
573.600, 0.218
573.700, 0.205
573.800, 0.208
573.900, 0.189
574.000, 0.207
574.100, 0.211
574.200, 0.197
574.300, 0.185
574.400, 0.208
574.500, 0.201
574.600, 0.211
574.700, 0.205
574.800, 0.203
574.900, 0.219
575.000, 0.190
575.100, 0.214
575.200, 0.209
575.300, 0.195
575.400, 0.182
575.500, 0.179
575.600, 0.176
575.700, 0.174
575.800, 0.216
575.900, 0.220
576.000, 0.212
576.100, 0.225
576.200, 0.222
576.300, 0.220
576.400, 0.243
576.500, 0.221
576.600, 0.214
576.700, 0.208
576.800, 0.199
576.900, 0.196
577.000, 0.196
577.100, 0.201
577.200, 0.210
577.300, 0.197
577.400, 0.237
577.500, 0.222
577.600, 0.242
577.700, 0.245
577.800, 0.238
577.900, 0.226
578.000, 0.225
578.100, 0.203
578.200, 0.238
578.300, 0.246
578.400, 0.232
578.500, 0.204
578.600, 0.217
578.700, 0.192
578.800, 0.224
578.900, 0.191
579.000, 0.176
579.100, 0.193
579.200, 0.211
579.300, 0.210
579.400, 0.193
579.500, 0.190
579.600, 0.189
579.700, 0.152
579.800, 0.182
579.900, 0.184
580.000, 0.179
580.100, 0.193
580.200, 0.195
580.300, 0.180
580.400, 0.192
580.500, 0.210
580.600, 0.237
580.700, 0.200
580.800, 0.203
580.900, 0.183
581.000, 0.205
581.100, 0.221
581.200, 0.204
581.300, 0.195
581.400, 0.207
581.500, 0.201
581.600, 0.214
581.700, 0.224
581.800, 0.251
581.900, 0.200
582.000, 0.217
582.100, 0.217
582.200, 0.236
582.300, 0.234
582.400, 0.225
582.500, 0.253
582.600, 0.216
582.700, 0.229
582.800, 0.229
582.900, 0.206
583.000, 0.219
583.100, 0.236
583.200, 0.227
583.300, 0.203
583.400, 0.200
583.500, 0.214
583.600, 0.215
583.700, 0.212
583.800, 0.193
583.900, 0.237
584.000, 0.218
584.100, 0.255
584.200, 0.251
584.300, 0.219
584.400, 0.203
584.500, 0.204
584.600, 0.195
584.700, 0.210
584.800, 0.200
584.900, 0.221
585.000, 0.204
585.100, 0.205
585.200, 0.195
585.300, 0.231
585.400, 0.256
585.500, 0.226
585.600, 0.228
585.700, 0.221
585.800, 0.201
585.900, 0.192
586.000, 0.194
586.100, 0.207
586.200, 0.185
586.300, 0.227
586.400, 0.212
586.500, 0.209
586.600, 0.238
586.700, 0.245
586.800, 0.256
586.900, 0.222
587.000, 0.208
587.100, 0.221
587.200, 0.221
587.300, 0.227
587.400, 0.207
587.500, 0.214
587.600, 0.228
587.700, 0.222
587.800, 0.211
587.900, 0.225
588.000, 0.223
588.100, 0.220
588.200, 0.229
588.300, 0.207
588.400, 0.181
588.500, 0.226
588.600, 0.241
588.700, 0.239
588.800, 0.199
588.900, 0.209
589.000, 0.211
589.100, 0.240
589.200, 0.207
589.300, 0.248
589.400, 0.261
589.500, 0.276
589.600, 0.261
589.700, 0.255
589.800, 0.235
589.900, 0.250
590.000, 0.214
590.100, 0.224
590.200, 0.241
590.300, 0.249
590.400, 0.238
590.500, 0.218
590.600, 0.195
590.700, 0.212
590.800, 0.202
590.900, 0.202
591.000, 0.209
591.100, 0.203
591.200, 0.226
591.300, 0.233
591.400, 0.236
591.500, 0.240
591.600, 0.225
591.700, 0.198
591.800, 0.207
591.900, 0.205
592.000, 0.200
592.100, 0.193
592.200, 0.184
592.300, 0.197
592.400, 0.196
592.500, 0.201
592.600, 0.207
592.700, 0.192
592.800, 0.208
592.900, 0.211
593.000, 0.220
593.100, 0.232
593.200, 0.227
593.300, 0.212
593.400, 0.219
593.500, 0.194
593.600, 0.202
593.700, 0.196
593.800, 0.202
593.900, 0.200
594.000, 0.229
594.100, 0.193
594.200, 0.218
594.300, 0.210
594.400, 0.229
594.500, 0.219
594.600, 0.219
594.700, 0.228
594.800, 0.222
594.900, 0.218
595.000, 0.215
595.100, 0.221
595.200, 0.216
595.300, 0.209
595.400, 0.207
595.500, 0.222
595.600, 0.201
595.700, 0.207
595.800, 0.211
595.900, 0.212
596.000, 0.227
596.100, 0.224
596.200, 0.223
596.300, 0.201
596.400, 0.232
596.500, 0.217
596.600, 0.228
596.700, 0.222
596.800, 0.225
596.900, 0.241
597.000, 0.255
597.100, 0.208
597.200, 0.235
597.300, 0.227
597.400, 0.197
597.500, 0.238
597.600, 0.201
597.700, 0.215
597.800, 0.201
597.900, 0.197
598.000, 0.200
598.100, 0.215
598.200, 0.183
598.300, 0.220
598.400, 0.185
598.500, 0.178
598.600, 0.169
598.700, 0.156
598.800, 0.170
598.900, 0.173
599.000, 0.173
599.100, 0.186
599.200, 0.176
599.300, 0.173
599.400, 0.178
599.500, 0.175
599.600, 0.185
599.700, 0.206
599.800, 0.175
599.900, 0.176
600.000, 0.165
600.100, 0.192
600.200, 0.198
600.300, 0.191
600.400, 0.172
600.500, 0.180
600.600, 0.166
600.700, 0.167
600.800, 0.183
600.900, 0.183
601.000, 0.180
601.100, 0.195
601.200, 0.201
601.300, 0.201
601.400, 0.207
601.500, 0.260
601.600, 0.213
601.700, 0.200
601.800, 0.199
601.900, 0.207
602.000, 0.217
602.100, 0.231
602.200, 0.242
602.300, 0.212
602.400, 0.180
602.500, 0.178
602.600, 0.204
602.700, 0.210
602.800, 0.197
602.900, 0.180
603.000, 0.158
603.100, 0.183
603.200, 0.191
603.300, 0.204
603.400, 0.187
603.500, 0.190
603.600, 0.194
603.700, 0.208
603.800, 0.206
603.900, 0.188
604.000, 0.207
604.100, 0.208
604.200, 0.220
604.300, 0.206
604.400, 0.213
604.500, 0.210
604.600, 0.193
604.700, 0.210
604.800, 0.215
604.900, 0.189
605.000, 0.214
605.100, 0.201
605.200, 0.186
605.300, 0.221
605.400, 0.217
605.500, 0.198
605.600, 0.190
605.700, 0.190
605.800, 0.226
605.900, 0.204
606.000, 0.229
606.100, 0.233
606.200, 0.209
606.300, 0.189
606.400, 0.204
606.500, 0.196
606.600, 0.187
606.700, 0.167
606.800, 0.152
606.900, 0.167
607.000, 0.168
607.100, 0.184
607.200, 0.162
607.300, 0.164
607.400, 0.200
607.500, 0.217
607.600, 0.217
607.700, 0.268
607.800, 0.240
607.900, 0.255
608.000, 0.271
608.100, 0.247
608.200, 0.253
608.300, 0.270
608.400, 0.229
608.500, 0.249
608.600, 0.211
608.700, 0.212
608.800, 0.207
608.900, 0.222
609.000, 0.211
609.100, 0.206
609.200, 0.196
609.300, 0.189
609.400, 0.211
609.500, 0.211
609.600, 0.233
609.700, 0.205
609.800, 0.214
609.900, 0.210
610.000, 0.211
610.100, 0.248
610.200, 0.240
610.300, 0.264
610.400, 0.221
610.500, 0.190
610.600, 0.188
610.700, 0.185
610.800, 0.218
610.900, 0.227
611.000, 0.221
611.100, 0.215
611.200, 0.191
611.300, 0.199
611.400, 0.222
611.500, 0.211
611.600, 0.218
611.700, 0.210
611.800, 0.220
611.900, 0.185
612.000, 0.197
612.100, 0.206
612.200, 0.204
612.300, 0.201
612.400, 0.228
612.500, 0.204
612.600, 0.226
612.700, 0.219
612.800, 0.188
612.900, 0.214
613.000, 0.216
613.100, 0.220
613.200, 0.231
613.300, 0.222
613.400, 0.230
613.500, 0.195
613.600, 0.192
613.700, 0.209
613.800, 0.192
613.900, 0.219
614.000, 0.215
614.100, 0.211
614.200, 0.201
614.300, 0.219
614.400, 0.186
614.500, 0.198
614.600, 0.179
614.700, 0.205
614.800, 0.188
614.900, 0.202
615.000, 0.206
615.100, 0.191
615.200, 0.199
615.300, 0.173
615.400, 0.198
615.500, 0.190
615.600, 0.189
615.700, 0.211
615.800, 0.183
615.900, 0.206
616.000, 0.186
616.100, 0.172
616.200, 0.195
616.300, 0.194
616.400, 0.242
616.500, 0.223
616.600, 0.222
616.700, 0.234
616.800, 0.193
616.900, 0.183
617.000, 0.199
617.100, 0.193
617.200, 0.172
617.300, 0.221
617.400, 0.213
617.500, 0.190
617.600, 0.209
617.700, 0.221
617.800, 0.245
617.900, 0.198
618.000, 0.220
618.100, 0.198
618.200, 0.210
618.300, 0.191
618.400, 0.179
618.500, 0.189
618.600, 0.198
618.700, 0.171
618.800, 0.177
618.900, 0.175
619.000, 0.191
619.100, 0.182
619.200, 0.208
619.300, 0.209
619.400, 0.195
619.500, 0.185
619.600, 0.207
619.700, 0.205
619.800, 0.204
619.900, 0.189
620.000, 0.208
620.100, 0.180
620.200, 0.201
620.300, 0.209
620.400, 0.215
620.500, 0.197
620.600, 0.238
620.700, 0.208
620.800, 0.197
620.900, 0.209
621.000, 0.185
621.100, 0.211
621.200, 0.223
621.300, 0.207
621.400, 0.193
621.500, 0.220
621.600, 0.207
621.700, 0.206
621.800, 0.181
621.900, 0.211
622.000, 0.241
622.100, 0.210
622.200, 0.183
622.300, 0.196
622.400, 0.179
622.500, 0.196
622.600, 0.193
622.700, 0.182
622.800, 0.251
622.900, 0.218
623.000, 0.196
623.100, 0.198
623.200, 0.185
623.300, 0.177
623.400, 0.184
623.500, 0.167
623.600, 0.177
623.700, 0.166
623.800, 0.180
623.900, 0.190
624.000, 0.187
624.100, 0.186
624.200, 0.209
624.300, 0.193
624.400, 0.174
624.500, 0.186
624.600, 0.173
624.700, 0.178
624.800, 0.180
624.900, 0.178
625.000, 0.187
625.100, 0.208
625.200, 0.181
625.300, 0.201
625.400, 0.204
625.500, 0.224
625.600, 0.206
625.700, 0.204
625.800, 0.183
625.900, 0.189
626.000, 0.214
626.100, 0.224
626.200, 0.186
626.300, 0.221
626.400, 0.213
626.500, 0.231
626.600, 0.203
626.700, 0.208
626.800, 0.218
626.900, 0.226
627.000, 0.230
627.100, 0.209
627.200, 0.245
627.300, 0.212
627.400, 0.220
627.500, 0.210
627.600, 0.193
627.700, 0.210
627.800, 0.204
627.900, 0.207
628.000, 0.187
628.100, 0.186
628.200, 0.187
628.300, 0.207
628.400, 0.213
628.500, 0.222
628.600, 0.203
628.700, 0.193
628.800, 0.187
628.900, 0.209
629.000, 0.196
629.100, 0.212
629.200, 0.193
629.300, 0.193
629.400, 0.210
629.500, 0.191
629.600, 0.214
629.700, 0.193
629.800, 0.192
629.900, 0.198
630.000, 0.204
630.100, 0.185
630.200, 0.208
630.300, 0.227
630.400, 0.237
630.500, 0.218
630.600, 0.226
630.700, 0.187
630.800, 0.173
630.900, 0.188
631.000, 0.213
631.100, 0.204
631.200, 0.199
631.300, 0.183
631.400, 0.161
631.500, 0.184
631.600, 0.205
631.700, 0.191
631.800, 0.206
631.900, 0.198
632.000, 0.211
632.100, 0.210
632.200, 0.234
632.300, 0.196
632.400, 0.216
632.500, 0.222
632.600, 0.222
632.700, 0.237
632.800, 0.203
632.900, 0.206
633.000, 0.197
633.100, 0.198
633.200, 0.235
633.300, 0.218
633.400, 0.208
633.500, 0.188
633.600, 0.196
633.700, 0.210
633.800, 0.195
633.900, 0.197
634.000, 0.214
634.100, 0.198
634.200, 0.234
634.300, 0.202
634.400, 0.227
634.500, 0.226
634.600, 0.219
634.700, 0.234
634.800, 0.242
634.900, 0.214
635.000, 0.242
635.100, 0.209
635.200, 0.215
635.300, 0.210
635.400, 0.210
635.500, 0.215
635.600, 0.199
635.700, 0.201
635.800, 0.200
635.900, 0.227
636.000, 0.212
636.100, 0.226
636.200, 0.228
636.300, 0.222
636.400, 0.195
636.500, 0.192
636.600, 0.205
636.700, 0.186
636.800, 0.193
636.900, 0.173
637.000, 0.172
637.100, 0.170
637.200, 0.200
637.300, 0.177
637.400, 0.191
637.500, 0.184
637.600, 0.200
637.700, 0.187
637.800, 0.181
637.900, 0.185
638.000, 0.190
638.100, 0.213
638.200, 0.187
638.300, 0.187
638.400, 0.191
638.500, 0.182
638.600, 0.157
638.700, 0.171
638.800, 0.213
638.900, 0.214
639.000, 0.190
639.100, 0.182
639.200, 0.192
639.300, 0.179
639.400, 0.183
639.500, 0.206
639.600, 0.210
639.700, 0.210
639.800, 0.219
639.900, 0.218
640.000, 0.208
640.100, 0.202
640.200, 0.198
640.300, 0.198
640.400, 0.188
640.500, 0.192
640.600, 0.176
640.700, 0.171
640.800, 0.180
640.900, 0.191
641.000, 0.194
641.100, 0.193
641.200, 0.203
641.300, 0.216
641.400, 0.217
641.500, 0.199
641.600, 0.239
641.700, 0.220
641.800, 0.246
641.900, 0.221
642.000, 0.210
642.100, 0.206
642.200, 0.219
642.300, 0.223
642.400, 0.241
642.500, 0.238
642.600, 0.216
642.700, 0.232
642.800, 0.227
642.900, 0.220
643.000, 0.219
643.100, 0.209
643.200, 0.247
643.300, 0.257
643.400, 0.240
643.500, 0.241
643.600, 0.230
643.700, 0.253
643.800, 0.277
643.900, 0.257
644.000, 0.260
644.100, 0.238
644.200, 0.225
644.300, 0.184
644.400, 0.193
644.500, 0.197
644.600, 0.191
644.700, 0.195
644.800, 0.207
644.900, 0.213
645.000, 0.203
645.100, 0.205
645.200, 0.177
645.300, 0.185
645.400, 0.180
645.500, 0.211
645.600, 0.207
645.700, 0.175
645.800, 0.178
645.900, 0.167
646.000, 0.158
646.100, 0.180
646.200, 0.179
646.300, 0.191
646.400, 0.194
646.500, 0.184
646.600, 0.209
646.700, 0.235
646.800, 0.233
646.900, 0.287
647.000, 0.253
647.100, 0.212
647.200, 0.223
647.300, 0.198
647.400, 0.241
647.500, 0.191
647.600, 0.183
647.700, 0.181
647.800, 0.173
647.900, 0.202
648.000, 0.194
648.100, 0.207
648.200, 0.216
648.300, 0.198
648.400, 0.202
648.500, 0.215
648.600, 0.229
648.700, 0.226
648.800, 0.236
648.900, 0.213
649.000, 0.209
649.100, 0.206
649.200, 0.229
649.300, 0.223
649.400, 0.196
649.500, 0.203
649.600, 0.241
649.700, 0.211
649.800, 0.197
649.900, 0.179
650.000, 0.208
650.100, 0.196
650.200, 0.213
650.300, 0.213
650.400, 0.212
650.500, 0.195
650.600, 0.206
650.700, 0.192
650.800, 0.213
650.900, 0.194
651.000, 0.196
651.100, 0.183
651.200, 0.173
651.300, 0.190
651.400, 0.208
651.500, 0.202
651.600, 0.170
651.700, 0.183
651.800, 0.188
651.900, 0.159
652.000, 0.150
652.100, 0.174
652.200, 0.204
652.300, 0.177
652.400, 0.149
652.500, 0.172
652.600, 0.185
652.700, 0.185
652.800, 0.185
652.900, 0.184
653.000, 0.199
653.100, 0.202
653.200, 0.181
653.300, 0.211
653.400, 0.207
653.500, 0.194
653.600, 0.214
653.700, 0.219
653.800, 0.190
653.900, 0.205
654.000, 0.223
654.100, 0.216
654.200, 0.196
654.300, 0.221
654.400, 0.189
654.500, 0.188
654.600, 0.168
654.700, 0.182
654.800, 0.180
654.900, 0.207
655.000, 0.232
655.100, 0.233
655.200, 0.240
655.300, 0.219
655.400, 0.212
655.500, 0.210
655.600, 0.220
655.700, 0.204
655.800, 0.204
655.900, 0.224
656.000, 0.211
656.100, 0.211
656.200, 0.184
656.300, 0.186
656.400, 0.199
656.500, 0.238
656.600, 0.227
656.700, 0.264
656.800, 0.222
656.900, 0.183
657.000, 0.198
657.100, 0.189
657.200, 0.182
657.300, 0.181
657.400, 0.181
657.500, 0.217
657.600, 0.202
657.700, 0.189
657.800, 0.256
657.900, 0.262
658.000, 0.219
658.100, 0.219
658.200, 0.211
658.300, 0.225
658.400, 0.195
658.500, 0.212
658.600, 0.206
658.700, 0.193
658.800, 0.221
658.900, 0.191
659.000, 0.197
659.100, 0.198
659.200, 0.191
659.300, 0.215
659.400, 0.212
659.500, 0.194
659.600, 0.234
659.700, 0.191
659.800, 0.189
659.900, 0.198
660.000, 0.192
660.100, 0.193
660.200, 0.207
660.300, 0.182
660.400, 0.193
660.500, 0.236
660.600, 0.236
660.700, 0.233
660.800, 0.238
660.900, 0.234
661.000, 0.223
661.100, 0.208
661.200, 0.176
661.300, 0.195
661.400, 0.204
661.500, 0.178
661.600, 0.180
661.700, 0.175
661.800, 0.196
661.900, 0.222
662.000, 0.200
662.100, 0.201
662.200, 0.210
662.300, 0.218
662.400, 0.176
662.500, 0.192
662.600, 0.169
662.700, 0.205
662.800, 0.194
662.900, 0.193
663.000, 0.199
663.100, 0.224
663.200, 0.189
663.300, 0.191
663.400, 0.216
663.500, 0.207
663.600, 0.196
663.700, 0.218
663.800, 0.188
663.900, 0.199
664.000, 0.179
664.100, 0.195
664.200, 0.214
664.300, 0.197
664.400, 0.195
664.500, 0.208
664.600, 0.191
664.700, 0.198
664.800, 0.188
664.900, 0.194
665.000, 0.196
665.100, 0.206
665.200, 0.203
665.300, 0.207
665.400, 0.189
665.500, 0.209
665.600, 0.218
665.700, 0.221
665.800, 0.199
665.900, 0.210
666.000, 0.217
666.100, 0.234
666.200, 0.256
666.300, 0.252
666.400, 0.221
666.500, 0.217
666.600, 0.229
666.700, 0.217
666.800, 0.220
666.900, 0.214
667.000, 0.230
667.100, 0.193
667.200, 0.186
667.300, 0.206
667.400, 0.215
667.500, 0.214
667.600, 0.199
667.700, 0.169
667.800, 0.173
667.900, 0.175
668.000, 0.175
668.100, 0.192
668.200, 0.178
668.300, 0.174
668.400, 0.186
668.500, 0.174
668.600, 0.172
668.700, 0.167
668.800, 0.187
668.900, 0.175
669.000, 0.164
669.100, 0.187
669.200, 0.185
669.300, 0.168
669.400, 0.179
669.500, 0.165
669.600, 0.196
669.700, 0.181
669.800, 0.164
669.900, 0.183
670.000, 0.184
670.100, 0.158
670.200, 0.162
670.300, 0.157
670.400, 0.165
670.500, 0.167
670.600, 0.162
670.700, 0.166
670.800, 0.160
670.900, 0.159
671.000, 0.160
671.100, 0.166
671.200, 0.158
671.300, 0.176
671.400, 0.181
671.500, 0.165
671.600, 0.154
671.700, 0.150
671.800, 0.154
671.900, 0.165
672.000, 0.171
672.100, 0.157
672.200, 0.165
672.300, 0.183
672.400, 0.179
672.500, 0.174
672.600, 0.180
672.700, 0.176
672.800, 0.176
672.900, 0.182
673.000, 0.174
673.100, 0.190
673.200, 0.185
673.300, 0.188
673.400, 0.182
673.500, 0.186
673.600, 0.186
673.700, 0.196
673.800, 0.182
673.900, 0.191
674.000, 0.190
674.100, 0.174
674.200, 0.164
674.300, 0.178
674.400, 0.185
674.500, 0.205
674.600, 0.193
674.700, 0.198
674.800, 0.210
674.900, 0.205
675.000, 0.219
675.100, 0.228
675.200, 0.196
675.300, 0.218
675.400, 0.190
675.500, 0.210
675.600, 0.197
675.700, 0.230
675.800, 0.239
675.900, 0.222
676.000, 0.230
676.100, 0.233
676.200, 0.212
676.300, 0.208
676.400, 0.201
676.500, 0.187
676.600, 0.194
676.700, 0.188
676.800, 0.185
676.900, 0.193
677.000, 0.196
677.100, 0.198
677.200, 0.199
677.300, 0.197
677.400, 0.207
677.500, 0.225
677.600, 0.217
677.700, 0.189
677.800, 0.176
677.900, 0.165
678.000, 0.193
678.100, 0.203
678.200, 0.195
678.300, 0.192
678.400, 0.182
678.500, 0.161
678.600, 0.165
678.700, 0.194
678.800, 0.188
678.900, 0.193
679.000, 0.194
679.100, 0.182
679.200, 0.179
679.300, 0.205
679.400, 0.174
679.500, 0.173
679.600, 0.182
679.700, 0.197
679.800, 0.203
679.900, 0.222
680.000, 0.209
680.100, 0.212
680.200, 0.209
680.300, 0.205
680.400, 0.176
680.500, 0.178
680.600, 0.175
680.700, 0.205
680.800, 0.204
680.900, 0.213
681.000, 0.194
681.100, 0.204
681.200, 0.217
681.300, 0.192
681.400, 0.230
681.500, 0.201
681.600, 0.205
681.700, 0.162
681.800, 0.159
681.900, 0.195
682.000, 0.186
682.100, 0.180
682.200, 0.187
682.300, 0.198
682.400, 0.213
682.500, 0.175
682.600, 0.179
682.700, 0.184
682.800, 0.217
682.900, 0.182
683.000, 0.179
683.100, 0.201
683.200, 0.192
683.300, 0.220
683.400, 0.237
683.500, 0.224
683.600, 0.208
683.700, 0.191
683.800, 0.200
683.900, 0.204
684.000, 0.205
684.100, 0.193
684.200, 0.212
684.300, 0.229
684.400, 0.232
684.500, 0.208
684.600, 0.225
684.700, 0.234
684.800, 0.216
684.900, 0.189
685.000, 0.198
685.100, 0.193
685.200, 0.182
685.300, 0.215
685.400, 0.208
685.500, 0.191
685.600, 0.204
685.700, 0.184
685.800, 0.194
685.900, 0.184
686.000, 0.197
686.100, 0.197
686.200, 0.180
686.300, 0.174
686.400, 0.187
686.500, 0.179
686.600, 0.205
686.700, 0.170
686.800, 0.177
686.900, 0.185
687.000, 0.187
687.100, 0.187
687.200, 0.196
687.300, 0.201
687.400, 0.193
687.500, 0.179
687.600, 0.201
687.700, 0.201
687.800, 0.198
687.900, 0.213
688.000, 0.201
688.100, 0.233
688.200, 0.215
688.300, 0.249
688.400, 0.231
688.500, 0.229
688.600, 0.215
688.700, 0.223
688.800, 0.232
688.900, 0.231
689.000, 0.243
689.100, 0.228
689.200, 0.198
689.300, 0.210
689.400, 0.182
689.500, 0.184
689.600, 0.192
689.700, 0.168
689.800, 0.194
689.900, 0.186
690.000, 0.187
690.100, 0.199
690.200, 0.206
690.300, 0.179
690.400, 0.204
690.500, 0.192
690.600, 0.194
690.700, 0.182
690.800, 0.189
690.900, 0.227
691.000, 0.205
691.100, 0.214
691.200, 0.222
691.300, 0.211
691.400, 0.215
691.500, 0.234
691.600, 0.186
691.700, 0.215
691.800, 0.214
691.900, 0.247
692.000, 0.211
692.100, 0.196
692.200, 0.209
692.300, 0.195
692.400, 0.194
692.500, 0.223
692.600, 0.201
692.700, 0.220
692.800, 0.220
692.900, 0.200
693.000, 0.222
693.100, 0.196
693.200, 0.184
693.300, 0.168
693.400, 0.214
693.500, 0.247
693.600, 0.217
693.700, 0.230
693.800, 0.225
693.900, 0.212
694.000, 0.216
694.100, 0.226
694.200, 0.225
694.300, 0.217
694.400, 0.167
694.500, 0.193
694.600, 0.204
694.700, 0.184
694.800, 0.203
694.900, 0.183
695.000, 0.207
695.100, 0.219
695.200, 0.194
695.300, 0.209
695.400, 0.225
695.500, 0.175
695.600, 0.189
695.700, 0.187
695.800, 0.206
695.900, 0.219
696.000, 0.204
696.100, 0.190
696.200, 0.209
696.300, 0.243
696.400, 0.230
696.500, 0.218
696.600, 0.202
696.700, 0.195
696.800, 0.201
696.900, 0.192
697.000, 0.219
697.100, 0.209
697.200, 0.214
697.300, 0.212
697.400, 0.191
697.500, 0.179
697.600, 0.200
697.700, 0.185
697.800, 0.200
697.900, 0.200
698.000, 0.217
698.100, 0.206
698.200, 0.196
698.300, 0.206
698.400, 0.196
698.500, 0.200
698.600, 0.217
698.700, 0.198
698.800, 0.180
698.900, 0.210
699.000, 0.202
699.100, 0.220
699.200, 0.232
699.300, 0.225
699.400, 0.198
699.500, 0.223
699.600, 0.207
699.700, 0.197
699.800, 0.231
699.900, 0.209
700.000, 0.193
700.100, 0.224
700.200, 0.229
700.300, 0.217
700.400, 0.206
700.500, 0.202
700.600, 0.202
700.700, 0.240
700.800, 0.198
700.900, 0.195
701.000, 0.196
701.100, 0.192
701.200, 0.222
701.300, 0.198
701.400, 0.233
701.500, 0.232
701.600, 0.229
701.700, 0.215
701.800, 0.207
701.900, 0.232
702.000, 0.236
702.100, 0.224
702.200, 0.228
702.300, 0.240
702.400, 0.221
702.500, 0.223
702.600, 0.247
702.700, 0.238
702.800, 0.233
702.900, 0.232
703.000, 0.210
703.100, 0.249
703.200, 0.220
703.300, 0.218
703.400, 0.205
703.500, 0.218
703.600, 0.232
703.700, 0.196
703.800, 0.209
703.900, 0.223
704.000, 0.214
704.100, 0.219
704.200, 0.221
704.300, 0.224
704.400, 0.200
704.500, 0.209
704.600, 0.198
704.700, 0.218
704.800, 0.205
704.900, 0.225
705.000, 0.202
705.100, 0.213
705.200, 0.197
705.300, 0.186
705.400, 0.179
705.500, 0.168
705.600, 0.168
705.700, 0.182
705.800, 0.179
705.900, 0.193
706.000, 0.190
706.100, 0.176
706.200, 0.211
706.300, 0.196
706.400, 0.164
706.500, 0.190
706.600, 0.188
706.700, 0.199
706.800, 0.174
706.900, 0.186
707.000, 0.188
707.100, 0.181
707.200, 0.194
707.300, 0.190
707.400, 0.182
707.500, 0.168
707.600, 0.191
707.700, 0.217
707.800, 0.206
707.900, 0.201
708.000, 0.202
708.100, 0.181
708.200, 0.178
708.300, 0.192
708.400, 0.194
708.500, 0.186
708.600, 0.201
708.700, 0.194
708.800, 0.185
708.900, 0.212
709.000, 0.219
709.100, 0.201
709.200, 0.211
709.300, 0.197
709.400, 0.199
709.500, 0.202
709.600, 0.207
709.700, 0.204
709.800, 0.207
709.900, 0.200
710.000, 0.210
710.100, 0.202
710.200, 0.191
710.300, 0.219
710.400, 0.231
710.500, 0.230
710.600, 0.201
710.700, 0.200
710.800, 0.208
710.900, 0.219
711.000, 0.186
711.100, 0.189
711.200, 0.207
711.300, 0.200
711.400, 0.232
711.500, 0.196
711.600, 0.224
711.700, 0.229
711.800, 0.195
711.900, 0.227
712.000, 0.223
712.100, 0.234
712.200, 0.215
712.300, 0.239
712.400, 0.212
712.500, 0.205
712.600, 0.194
712.700, 0.182
712.800, 0.190
712.900, 0.173
713.000, 0.183
713.100, 0.169
713.200, 0.185
713.300, 0.178
713.400, 0.177
713.500, 0.164
713.600, 0.188
713.700, 0.208
713.800, 0.204
713.900, 0.215
714.000, 0.172
714.100, 0.152
714.200, 0.191
714.300, 0.177
714.400, 0.178
714.500, 0.159
714.600, 0.169
714.700, 0.192
714.800, 0.200
714.900, 0.209
715.000, 0.183
715.100, 0.193
715.200, 0.240
715.300, 0.232
715.400, 0.228
715.500, 0.213
715.600, 0.202
715.700, 0.204
715.800, 0.210
715.900, 0.205
716.000, 0.206
716.100, 0.183
716.200, 0.207
716.300, 0.203
716.400, 0.187
716.500, 0.192
716.600, 0.218
716.700, 0.207
716.800, 0.204
716.900, 0.187
717.000, 0.196
717.100, 0.194
717.200, 0.198
717.300, 0.198
717.400, 0.187
717.500, 0.201
717.600, 0.176
717.700, 0.183
717.800, 0.219
717.900, 0.207
718.000, 0.205
718.100, 0.191
718.200, 0.215
718.300, 0.188
718.400, 0.205
718.500, 0.202
718.600, 0.197
718.700, 0.204
718.800, 0.215
718.900, 0.204
719.000, 0.195
719.100, 0.189
719.200, 0.212
719.300, 0.199
719.400, 0.196
719.500, 0.213
719.600, 0.216
719.700, 0.222
719.800, 0.196
719.900, 0.208
720.000, 0.198
720.100, 0.196
720.200, 0.243
720.300, 0.212
720.400, 0.197
720.500, 0.208
720.600, 0.201
720.700, 0.223
720.800, 0.228
720.900, 0.190
721.000, 0.200
721.100, 0.196
721.200, 0.188
721.300, 0.193
721.400, 0.197
721.500, 0.205
721.600, 0.208
721.700, 0.213
721.800, 0.198
721.900, 0.220
722.000, 0.222
722.100, 0.223
722.200, 0.233
722.300, 0.218
722.400, 0.217
722.500, 0.209
722.600, 0.210
722.700, 0.211
722.800, 0.202
722.900, 0.216
723.000, 0.197
723.100, 0.183
723.200, 0.189
723.300, 0.194
723.400, 0.199
723.500, 0.211
723.600, 0.187
723.700, 0.210
723.800, 0.221
723.900, 0.181
724.000, 0.172
724.100, 0.190
724.200, 0.179
724.300, 0.198
724.400, 0.202
724.500, 0.209
724.600, 0.201
724.700, 0.200
724.800, 0.206
724.900, 0.197
725.000, 0.206
725.100, 0.214
725.200, 0.210
725.300, 0.221
725.400, 0.192
725.500, 0.201
725.600, 0.231
725.700, 0.236
725.800, 0.257
725.900, 0.258
726.000, 0.241
726.100, 0.232
726.200, 0.200
726.300, 0.208
726.400, 0.211
726.500, 0.243
726.600, 0.264
726.700, 0.239
726.800, 0.234
726.900, 0.251
727.000, 0.246
727.100, 0.256
727.200, 0.286
727.300, 0.271
727.400, 0.252
727.500, 0.240
727.600, 0.258
727.700, 0.227
727.800, 0.236
727.900, 0.210
728.000, 0.199
728.100, 0.221
728.200, 0.220
728.300, 0.196
728.400, 0.226
728.500, 0.225
728.600, 0.268
728.700, 0.244
728.800, 0.252
728.900, 0.306
729.000, 0.314
729.100, 0.281
729.200, 0.248
729.300, 0.275
729.400, 0.267
729.500, 0.276
729.600, 0.254
729.700, 0.260
729.800, 0.256
729.900, 0.271
730.000, 0.274
730.100, 0.269
730.200, 0.282
730.300, 0.289
730.400, 0.237
730.500, 0.223
730.600, 0.225
730.700, 0.238
730.800, 0.240
730.900, 0.248
731.000, 0.209
731.100, 0.224
731.200, 0.196
731.300, 0.213
731.400, 0.205
731.500, 0.211
731.600, 0.211
731.700, 0.230
731.800, 0.228
731.900, 0.204
732.000, 0.220
732.100, 0.225
732.200, 0.215
732.300, 0.192
732.400, 0.222
732.500, 0.206
732.600, 0.200
732.700, 0.238
732.800, 0.257
732.900, 0.235
733.000, 0.242
733.100, 0.205
733.200, 0.205
733.300, 0.204
733.400, 0.186
733.500, 0.175
733.600, 0.189
733.700, 0.181
733.800, 0.183
733.900, 0.189
734.000, 0.191
734.100, 0.185
734.200, 0.171
734.300, 0.179
734.400, 0.193
734.500, 0.175
734.600, 0.168
734.700, 0.182
734.800, 0.179
734.900, 0.182
735.000, 0.155
735.100, 0.157
735.200, 0.178
735.300, 0.198
735.400, 0.156
735.500, 0.157
735.600, 0.172
735.700, 0.139
735.800, 0.167
735.900, 0.166
736.000, 0.184
736.100, 0.155
736.200, 0.165
736.300, 0.153
736.400, 0.143
736.500, 0.164
736.600, 0.156
736.700, 0.158
736.800, 0.162
736.900, 0.176
737.000, 0.170
737.100, 0.163
737.200, 0.174
737.300, 0.155
737.400, 0.168
737.500, 0.174
737.600, 0.153
737.700, 0.181
737.800, 0.170
737.900, 0.174
738.000, 0.146
738.100, 0.168
738.200, 0.170
738.300, 0.177
738.400, 0.190
738.500, 0.174
738.600, 0.178
738.700, 0.166
738.800, 0.167
738.900, 0.215
739.000, 0.179
739.100, 0.173
739.200, 0.184
739.300, 0.185
739.400, 0.174
739.500, 0.176
739.600, 0.162
739.700, 0.167
739.800, 0.165
739.900, 0.175
740.000, 0.171
740.100, 0.186
740.200, 0.159
740.300, 0.163
740.400, 0.146
740.500, 0.165
740.600, 0.165
740.700, 0.165
740.800, 0.139
740.900, 0.159
741.000, 0.163
741.100, 0.175
741.200, 0.172
741.300, 0.172
741.400, 0.154
741.500, 0.167
741.600, 0.172
741.700, 0.136
741.800, 0.137
741.900, 0.155
742.000, 0.158
742.100, 0.156
742.200, 0.146
742.300, 0.151
742.400, 0.202
742.500, 0.173
742.600, 0.152
742.700, 0.147
742.800, 0.177
742.900, 0.159
743.000, 0.158
743.100, 0.152
743.200, 0.150
743.300, 0.139
743.400, 0.148
743.500, 0.163
743.600, 0.175
743.700, 0.188
743.800, 0.173
743.900, 0.162
744.000, 0.150
744.100, 0.177
744.200, 0.165
744.300, 0.161
744.400, 0.162
744.500, 0.163
744.600, 0.153
744.700, 0.164
744.800, 0.170
744.900, 0.148
745.000, 0.196
745.100, 0.171
745.200, 0.183
745.300, 0.148
745.400, 0.171
745.500, 0.168
745.600, 0.191
745.700, 0.202
745.800, 0.206
745.900, 0.225
746.000, 0.217
746.100, 0.191
746.200, 0.196
746.300, 0.212
746.400, 0.216
746.500, 0.184
746.600, 0.185
746.700, 0.195
746.800, 0.218
746.900, 0.192
747.000, 0.200
747.100, 0.175
747.200, 0.203
747.300, 0.202
747.400, 0.179
747.500, 0.199
747.600, 0.213
747.700, 0.175
747.800, 0.193
747.900, 0.187
748.000, 0.196
748.100, 0.193
748.200, 0.187
748.300, 0.188
748.400, 0.174
748.500, 0.196
748.600, 0.206
748.700, 0.190
748.800, 0.190
748.900, 0.160
749.000, 0.158
749.100, 0.211
749.200, 0.242
749.300, 0.236
749.400, 0.237
749.500, 0.226
749.600, 0.184
749.700, 0.210
749.800, 0.196
749.900, 0.247
750.000, 0.224
750.100, 0.208
750.200, 0.225
750.300, 0.218
750.400, 0.246
750.500, 0.235
750.600, 0.213
750.700, 0.237
750.800, 0.211
750.900, 0.206
751.000, 0.218
751.100, 0.241
751.200, 0.229
751.300, 0.208
751.400, 0.200
751.500, 0.203
751.600, 0.213
751.700, 0.215
751.800, 0.213
751.900, 0.213
752.000, 0.209
752.100, 0.221
752.200, 0.200
752.300, 0.183
752.400, 0.195
752.500, 0.186
752.600, 0.214
752.700, 0.217
752.800, 0.213
752.900, 0.197
753.000, 0.193
753.100, 0.173
753.200, 0.180
753.300, 0.211
753.400, 0.209
753.500, 0.165
753.600, 0.172
753.700, 0.185
753.800, 0.169
753.900, 0.179
754.000, 0.170
754.100, 0.161
754.200, 0.188
754.300, 0.185
754.400, 0.192
754.500, 0.172
754.600, 0.158
754.700, 0.156
754.800, 0.175
754.900, 0.175
755.000, 0.155
755.100, 0.146
755.200, 0.153
755.300, 0.176
755.400, 0.206
755.500, 0.174
755.600, 0.159
755.700, 0.152
755.800, 0.150
755.900, 0.157
756.000, 0.146
756.100, 0.163
756.200, 0.180
756.300, 0.150
756.400, 0.181
756.500, 0.170
756.600, 0.173
756.700, 0.174
756.800, 0.166
756.900, 0.161
757.000, 0.161
757.100, 0.155
757.200, 0.180
757.300, 0.161
757.400, 0.184
757.500, 0.188
757.600, 0.192
757.700, 0.206
757.800, 0.211
757.900, 0.187
758.000, 0.190
758.100, 0.221
758.200, 0.193
758.300, 0.211
758.400, 0.185
758.500, 0.210
758.600, 0.195
758.700, 0.190
758.800, 0.241
758.900, 0.193
759.000, 0.188
759.100, 0.178
759.200, 0.165
759.300, 0.180
759.400, 0.136
759.500, 0.146
759.600, 0.157
759.700, 0.157
759.800, 0.168
759.900, 0.170
760.000, 0.154
760.100, 0.163
760.200, 0.145
760.300, 0.164
760.400, 0.176
760.500, 0.178
760.600, 0.168
760.700, 0.170
760.800, 0.167
760.900, 0.174
761.000, 0.178
761.100, 0.199
761.200, 0.179
761.300, 0.139
761.400, 0.156
761.500, 0.168
761.600, 0.168
761.700, 0.156
761.800, 0.174
761.900, 0.168
762.000, 0.141
762.100, 0.163
762.200, 0.149
762.300, 0.188
762.400, 0.163
762.500, 0.188
762.600, 0.186
762.700, 0.186
762.800, 0.144
762.900, 0.164
763.000, 0.162
763.100, 0.181
763.200, 0.166
763.300, 0.175
763.400, 0.167
763.500, 0.197
763.600, 0.205
763.700, 0.199
763.800, 0.178
763.900, 0.181
764.000, 0.194
764.100, 0.176
764.200, 0.199
764.300, 0.194
764.400, 0.192
764.500, 0.215
764.600, 0.194
764.700, 0.216
764.800, 0.207
764.900, 0.200
765.000, 0.218
765.100, 0.204
765.200, 0.198
765.300, 0.200
765.400, 0.205
765.500, 0.208
765.600, 0.180
765.700, 0.163
765.800, 0.156
765.900, 0.195
766.000, 0.180
766.100, 0.179
766.200, 0.189
766.300, 0.200
766.400, 0.173
766.500, 0.202
766.600, 0.180
766.700, 0.171
766.800, 0.182
766.900, 0.181
767.000, 0.192
767.100, 0.202
767.200, 0.193
767.300, 0.207
767.400, 0.188
767.500, 0.183
767.600, 0.169
767.700, 0.159
767.800, 0.163
767.900, 0.165
768.000, 0.175
768.100, 0.148
768.200, 0.150
768.300, 0.153
768.400, 0.150
768.500, 0.177
768.600, 0.169
768.700, 0.173
768.800, 0.161
768.900, 0.174
769.000, 0.154
769.100, 0.167
769.200, 0.167
769.300, 0.164
769.400, 0.173
769.500, 0.186
769.600, 0.181
769.700, 0.179
769.800, 0.210
769.900, 0.178
770.000, 0.172
770.100, 0.164
770.200, 0.173
770.300, 0.158
770.400, 0.179
770.500, 0.208
770.600, 0.166
770.700, 0.162
770.800, 0.161
770.900, 0.158
771.000, 0.154
771.100, 0.167
771.200, 0.170
771.300, 0.175
771.400, 0.186
771.500, 0.171
771.600, 0.221
771.700, 0.180
771.800, 0.177
771.900, 0.163
772.000, 0.168
772.100, 0.180
772.200, 0.196
772.300, 0.166
772.400, 0.191
772.500, 0.205
772.600, 0.167
772.700, 0.181
772.800, 0.166
772.900, 0.186
773.000, 0.184
773.100, 0.207
773.200, 0.209
773.300, 0.193
773.400, 0.183
773.500, 0.171
773.600, 0.168
773.700, 0.158
773.800, 0.170
773.900, 0.164
774.000, 0.165
774.100, 0.160
774.200, 0.158
774.300, 0.133
774.400, 0.163
774.500, 0.145
774.600, 0.146
774.700, 0.156
774.800, 0.143
774.900, 0.193
775.000, 0.164
775.100, 0.138
775.200, 0.160
775.300, 0.150
775.400, 0.175
775.500, 0.132
775.600, 0.166
775.700, 0.166
775.800, 0.180
775.900, 0.173
776.000, 0.169
776.100, 0.179
776.200, 0.177
776.300, 0.178
776.400, 0.180
776.500, 0.192
776.600, 0.177
776.700, 0.166
776.800, 0.211
776.900, 0.180
777.000, 0.179
777.100, 0.163
777.200, 0.179
777.300, 0.208
777.400, 0.206
777.500, 0.194
777.600, 0.193
777.700, 0.184
777.800, 0.200
777.900, 0.198
778.000, 0.208
778.100, 0.179
778.200, 0.202
778.300, 0.192
778.400, 0.176
778.500, 0.152
778.600, 0.189
778.700, 0.161
778.800, 0.150
778.900, 0.159
779.000, 0.152
779.100, 0.161
779.200, 0.163
779.300, 0.165
779.400, 0.172
779.500, 0.153
779.600, 0.174
779.700, 0.170
779.800, 0.147
779.900, 0.157
780.000, 0.157
780.100, 0.181
780.200, 0.164
780.300, 0.163
780.400, 0.160
780.500, 0.178
780.600, 0.151
780.700, 0.172
780.800, 0.147
780.900, 0.157
781.000, 0.161
781.100, 0.162
781.200, 0.160
781.300, 0.168
781.400, 0.159
781.500, 0.180
781.600, 0.194
781.700, 0.180
781.800, 0.164
781.900, 0.176
782.000, 0.204
782.100, 0.167
782.200, 0.176
782.300, 0.167
782.400, 0.190
782.500, 0.190
782.600, 0.184
782.700, 0.169
782.800, 0.176
782.900, 0.189
783.000, 0.163
783.100, 0.174
783.200, 0.184
783.300, 0.170
783.400, 0.174
783.500, 0.186
783.600, 0.213
783.700, 0.212
783.800, 0.195
783.900, 0.193
784.000, 0.163
784.100, 0.166
784.200, 0.191
784.300, 0.183
784.400, 0.180
784.500, 0.188
784.600, 0.184
784.700, 0.181
784.800, 0.167
784.900, 0.205
785.000, 0.164
785.100, 0.189
785.200, 0.180
785.300, 0.180
785.400, 0.199
785.500, 0.183
785.600, 0.202
785.700, 0.198
785.800, 0.169
785.900, 0.193
786.000, 0.172
786.100, 0.186
786.200, 0.182
786.300, 0.154
786.400, 0.165
786.500, 0.179
786.600, 0.177
786.700, 0.161
786.800, 0.182
786.900, 0.179
787.000, 0.171
787.100, 0.177
787.200, 0.167
787.300, 0.182
787.400, 0.200
787.500, 0.186
787.600, 0.237
787.700, 0.200
787.800, 0.224
787.900, 0.212
788.000, 0.205
788.100, 0.199
788.200, 0.189
788.300, 0.204
788.400, 0.213
788.500, 0.205
788.600, 0.188
788.700, 0.182
788.800, 0.173
788.900, 0.180
789.000, 0.176
789.100, 0.175
789.200, 0.170
789.300, 0.158
789.400, 0.163
789.500, 0.160
789.600, 0.157
789.700, 0.164
789.800, 0.173
789.900, 0.167
790.000, 0.166
790.100, 0.168
790.200, 0.182
790.300, 0.187
790.400, 0.165
790.500, 0.177
790.600, 0.187
790.700, 0.194
790.800, 0.179
790.900, 0.166
791.000, 0.191
791.100, 0.164
791.200, 0.170
791.300, 0.156
791.400, 0.172
791.500, 0.153
791.600, 0.165
791.700, 0.171
791.800, 0.195
791.900, 0.167
792.000, 0.147
792.100, 0.161
792.200, 0.185
792.300, 0.191
792.400, 0.197
792.500, 0.199
792.600, 0.204
792.700, 0.210
792.800, 0.175
792.900, 0.197
793.000, 0.194
793.100, 0.190
793.200, 0.214
793.300, 0.207
793.400, 0.184
793.500, 0.185
793.600, 0.191
793.700, 0.177
793.800, 0.186
793.900, 0.190
794.000, 0.193
794.100, 0.188
794.200, 0.184
794.300, 0.195
794.400, 0.214
794.500, 0.188
794.600, 0.174
794.700, 0.174
794.800, 0.183
794.900, 0.185
795.000, 0.170
795.100, 0.160
795.200, 0.155
795.300, 0.156
795.400, 0.181
795.500, 0.161
795.600, 0.166
795.700, 0.173
795.800, 0.163
795.900, 0.149
796.000, 0.140
796.100, 0.203
796.200, 0.178
796.300, 0.167
796.400, 0.189
796.500, 0.167
796.600, 0.169
796.700, 0.193
796.800, 0.170
796.900, 0.161
797.000, 0.163
797.100, 0.184
797.200, 0.160
797.300, 0.175
797.400, 0.173
797.500, 0.161
797.600, 0.153
797.700, 0.170
797.800, 0.149
797.900, 0.168
798.000, 0.159
798.100, 0.172
798.200, 0.155
798.300, 0.156
798.400, 0.161
798.500, 0.167
798.600, 0.176
798.700, 0.161
798.800, 0.195
798.900, 0.163
799.000, 0.164
799.100, 0.165
799.200, 0.157
799.300, 0.152
799.400, 0.156
799.500, 0.166
799.600, 0.146
799.700, 0.149
799.800, 0.154
799.900, 0.170
800.000, 0.165
800.100, 0.189
800.200, 0.191
800.300, 0.171
800.400, 0.160
800.500, 0.169
800.600, 0.166
800.700, 0.183
800.800, 0.192
800.900, 0.162
801.000, 0.184
801.100, 0.187
801.200, 0.180
801.300, 0.206
801.400, 0.159
801.500, 0.190
801.600, 0.168
801.700, 0.177
801.800, 0.152
801.900, 0.153
802.000, 0.171
802.100, 0.161
802.200, 0.145
802.300, 0.136
802.400, 0.148
802.500, 0.158
802.600, 0.157
802.700, 0.164
802.800, 0.190
802.900, 0.148
803.000, 0.168
803.100, 0.180
803.200, 0.172
803.300, 0.159
803.400, 0.164
803.500, 0.168
803.600, 0.154
803.700, 0.172
803.800, 0.165
803.900, 0.183
804.000, 0.186
804.100, 0.168
804.200, 0.173
804.300, 0.148
804.400, 0.158
804.500, 0.187
804.600, 0.157
804.700, 0.168
804.800, 0.154
804.900, 0.184
805.000, 0.177
805.100, 0.170
805.200, 0.172
805.300, 0.172
805.400, 0.179
805.500, 0.163
805.600, 0.162
805.700, 0.172
805.800, 0.171
805.900, 0.162
806.000, 0.156
806.100, 0.184
806.200, 0.154
806.300, 0.163
806.400, 0.176
806.500, 0.159
806.600, 0.165
806.700, 0.174
806.800, 0.167
806.900, 0.171
807.000, 0.176
807.100, 0.160
807.200, 0.165
807.300, 0.164
807.400, 0.172
807.500, 0.164
807.600, 0.181
807.700, 0.182
807.800, 0.170
807.900, 0.175
808.000, 0.162
808.100, 0.172
808.200, 0.204
808.300, 0.218
808.400, 0.209
808.500, 0.180
808.600, 0.178
808.700, 0.192
808.800, 0.162
808.900, 0.168
809.000, 0.165
809.100, 0.173
809.200, 0.181
809.300, 0.185
809.400, 0.197
809.500, 0.174
809.600, 0.187
809.700, 0.204
809.800, 0.193
809.900, 0.187
810.000, 0.167
810.100, 0.208
810.200, 0.160
810.300, 0.184
810.400, 0.192
810.500, 0.177
810.600, 0.174
810.700, 0.184
810.800, 0.178
810.900, 0.162
811.000, 0.146
811.100, 0.145
811.200, 0.169
811.300, 0.181
811.400, 0.193
811.500, 0.126
811.600, 0.139
811.700, 0.134
811.800, 0.128
811.900, 0.133
812.000, 0.138
812.100, 0.161
812.200, 0.162
812.300, 0.150
812.400, 0.172
812.500, 0.155
812.600, 0.161
812.700, 0.177
812.800, 0.137
812.900, 0.172
813.000, 0.140
813.100, 0.160
813.200, 0.171
813.300, 0.151
813.400, 0.169
813.500, 0.149
813.600, 0.163
813.700, 0.152
813.800, 0.125
813.900, 0.139
814.000, 0.157
814.100, 0.163
814.200, 0.185
814.300, 0.172
814.400, 0.167
814.500, 0.151
814.600, 0.151
814.700, 0.126
814.800, 0.117
814.900, 0.147
815.000, 0.147
815.100, 0.137
815.200, 0.143
815.300, 0.133
815.400, 0.145
815.500, 0.149
815.600, 0.131
815.700, 0.123
815.800, 0.144
815.900, 0.129
816.000, 0.148
816.100, 0.134
816.200, 0.134
816.300, 0.136
816.400, 0.127
816.500, 0.134
816.600, 0.158
816.700, 0.138
816.800, 0.134
816.900, 0.153
817.000, 0.141
817.100, 0.140
817.200, 0.153
817.300, 0.155
817.400, 0.182
817.500, 0.173
817.600, 0.151
817.700, 0.160
817.800, 0.145
817.900, 0.146
818.000, 0.127
818.100, 0.141
818.200, 0.133
818.300, 0.144
818.400, 0.141
818.500, 0.150
818.600, 0.144
818.700, 0.132
818.800, 0.144
818.900, 0.147
819.000, 0.139
819.100, 0.138
819.200, 0.152
819.300, 0.157
819.400, 0.165
819.500, 0.144
819.600, 0.153
819.700, 0.157
819.800, 0.168
819.900, 0.196
820.000, 0.220
820.100, 0.208
820.200, 0.219
820.300, 0.194
820.400, 0.171
820.500, 0.170
820.600, 0.171
820.700, 0.200
820.800, 0.216
820.900, 0.223
821.000, 0.239
821.100, 0.235
821.200, 0.211
821.300, 0.225
821.400, 0.204
821.500, 0.216
821.600, 0.231
821.700, 0.221
821.800, 0.234
821.900, 0.241
822.000, 0.247
822.100, 0.251
822.200, 0.203
822.300, 0.187
822.400, 0.201
822.500, 0.218
822.600, 0.233
822.700, 0.220
822.800, 0.216
822.900, 0.174
823.000, 0.183
823.100, 0.166
823.200, 0.202
823.300, 0.191
823.400, 0.182
823.500, 0.165
823.600, 0.161
823.700, 0.159
823.800, 0.164
823.900, 0.146
824.000, 0.150
824.100, 0.181
824.200, 0.158
824.300, 0.173
824.400, 0.208
824.500, 0.213
824.600, 0.218
824.700, 0.228
824.800, 0.193
824.900, 0.179
825.000, 0.176
825.100, 0.152
825.200, 0.204
825.300, 0.172
825.400, 0.201
825.500, 0.203
825.600, 0.195
825.700, 0.193
825.800, 0.166
825.900, 0.185
826.000, 0.192
826.100, 0.204
826.200, 0.202
826.300, 0.202
826.400, 0.199
826.500, 0.191
826.600, 0.151
826.700, 0.174
826.800, 0.121
826.900, 0.136
827.000, 0.147
827.100, 0.137
827.200, 0.139
827.300, 0.149
827.400, 0.177
827.500, 0.158
827.600, 0.149
827.700, 0.157
827.800, 0.181
827.900, 0.157
828.000, 0.162
828.100, 0.177
828.200, 0.186
828.300, 0.214
828.400, 0.176
828.500, 0.167
828.600, 0.208
828.700, 0.208
828.800, 0.288
828.900, 0.240
829.000, 0.235
829.100, 0.204
829.200, 0.198
829.300, 0.208
829.400, 0.193
829.500, 0.183
829.600, 0.188
829.700, 0.201
829.800, 0.218
829.900, 0.202
830.000, 0.185
830.100, 0.183
830.200, 0.195
830.300, 0.188
830.400, 0.186
830.500, 0.184
830.600, 0.175
830.700, 0.223
830.800, 0.210
830.900, 0.192
831.000, 0.206
831.100, 0.201
831.200, 0.227
831.300, 0.228
831.400, 0.180
831.500, 0.198
831.600, 0.200
831.700, 0.216
831.800, 0.218
831.900, 0.177
832.000, 0.182
832.100, 0.191
832.200, 0.190
832.300, 0.178
832.400, 0.187
832.500, 0.207
832.600, 0.167
832.700, 0.198
832.800, 0.263
832.900, 0.229
833.000, 0.231
833.100, 0.198
833.200, 0.188
833.300, 0.194
833.400, 0.208
833.500, 0.186
833.600, 0.204
833.700, 0.192
833.800, 0.180
833.900, 0.167
834.000, 0.167
834.100, 0.162
834.200, 0.138
834.300, 0.139
834.400, 0.142
834.500, 0.147
834.600, 0.151
834.700, 0.155
834.800, 0.193
834.900, 0.174
835.000, 0.158
835.100, 0.165
835.200, 0.191
835.300, 0.150
835.400, 0.163
835.500, 0.225
835.600, 0.173
835.700, 0.161
835.800, 0.179
835.900, 0.188
836.000, 0.143
836.100, 0.156
836.200, 0.152
836.300, 0.143
836.400, 0.140
836.500, 0.155
836.600, 0.190
836.700, 0.190
836.800, 0.164
836.900, 0.203
837.000, 0.180
837.100, 0.195
837.200, 0.235
837.300, 0.232
837.400, 0.200
837.500, 0.208
837.600, 0.206
837.700, 0.194
837.800, 0.217
837.900, 0.231
838.000, 0.213
838.100, 0.174
838.200, 0.158
838.300, 0.180
838.400, 0.183
838.500, 0.183
838.600, 0.178
838.700, 0.181
838.800, 0.208
838.900, 0.181
839.000, 0.184
839.100, 0.235
839.200, 0.182
839.300, 0.177
839.400, 0.169
839.500, 0.169
839.600, 0.200
839.700, 0.205
839.800, 0.188
839.900, 0.158
840.000, 0.186
840.100, 0.178
840.200, 0.202
840.300, 0.194
840.400, 0.159
840.500, 0.154
840.600, 0.178
840.700, 0.179
840.800, 0.181
840.900, 0.153
841.000, 0.146
841.100, 0.162
841.200, 0.153
841.300, 0.165
841.400, 0.152
841.500, 0.157
841.600, 0.176
841.700, 0.190
841.800, 0.182
841.900, 0.178
842.000, 0.187
842.100, 0.219
842.200, 0.214
842.300, 0.212
842.400, 0.213
842.500, 0.183
842.600, 0.196
842.700, 0.201
842.800, 0.181
842.900, 0.189
843.000, 0.200
843.100, 0.182
843.200, 0.157
843.300, 0.225
843.400, 0.180
843.500, 0.204
843.600, 0.233
843.700, 0.192
843.800, 0.199
843.900, 0.152
844.000, 0.197
844.100, 0.187
844.200, 0.169
844.300, 0.191
844.400, 0.209
844.500, 0.198
844.600, 0.201
844.700, 0.177
844.800, 0.167
844.900, 0.195
845.000, 0.162
845.100, 0.185
845.200, 0.187
845.300, 0.178
845.400, 0.213
845.500, 0.209
845.600, 0.170
845.700, 0.157
845.800, 0.175
845.900, 0.173
846.000, 0.178
846.100, 0.184
846.200, 0.198
846.300, 0.202
846.400, 0.189
846.500, 0.205
846.600, 0.173
846.700, 0.206
846.800, 0.213
846.900, 0.201
847.000, 0.206
847.100, 0.205
847.200, 0.190
847.300, 0.208
847.400, 0.203
847.500, 0.201
847.600, 0.184
847.700, 0.194
847.800, 0.181
847.900, 0.198
848.000, 0.202
848.100, 0.168
848.200, 0.176
848.300, 0.196
848.400, 0.204
848.500, 0.154
848.600, 0.171
848.700, 0.184
848.800, 0.167
848.900, 0.175
849.000, 0.172
849.100, 0.168
849.200, 0.182
849.300, 0.159
849.400, 0.155
849.500, 0.170
849.600, 0.179
849.700, 0.195
849.800, 0.195
849.900, 0.185
850.000, 0.218
850.100, 0.190
850.200, 0.194
850.300, 0.166
850.400, 0.189
850.500, 0.182
850.600, 0.200
850.700, 0.180
850.800, 0.176
850.900, 0.162
851.000, 0.163
851.100, 0.181
851.200, 0.206
851.300, 0.179
851.400, 0.198
851.500, 0.189
851.600, 0.202
851.700, 0.175
851.800, 0.194
851.900, 0.201
852.000, 0.208
852.100, 0.213
852.200, 0.194
852.300, 0.184
852.400, 0.198
852.500, 0.202
852.600, 0.200
852.700, 0.205
852.800, 0.182
852.900, 0.172
853.000, 0.184
853.100, 0.185
853.200, 0.203
853.300, 0.201
853.400, 0.196
853.500, 0.215
853.600, 0.201
853.700, 0.222
853.800, 0.195
853.900, 0.205
854.000, 0.211
854.100, 0.217
854.200, 0.218
854.300, 0.198
854.400, 0.189
854.500, 0.177
854.600, 0.169
854.700, 0.170
854.800, 0.164
854.900, 0.172
855.000, 0.160
855.100, 0.179
855.200, 0.203
855.300, 0.210
855.400, 0.175
855.500, 0.177
855.600, 0.180
855.700, 0.200
855.800, 0.191
855.900, 0.162
856.000, 0.177
856.100, 0.174
856.200, 0.161
856.300, 0.174
856.400, 0.170
856.500, 0.202
856.600, 0.192
856.700, 0.183
856.800, 0.178
856.900, 0.170
857.000, 0.164
857.100, 0.175
857.200, 0.168
857.300, 0.180
857.400, 0.185
857.500, 0.173
857.600, 0.175
857.700, 0.184
857.800, 0.171
857.900, 0.188
858.000, 0.183
858.100, 0.204
858.200, 0.166
858.300, 0.184
858.400, 0.174
858.500, 0.164
858.600, 0.177
858.700, 0.184
858.800, 0.192
858.900, 0.154
859.000, 0.178
859.100, 0.174
859.200, 0.180
859.300, 0.158
859.400, 0.164
859.500, 0.142
859.600, 0.161
859.700, 0.143
859.800, 0.172
859.900, 0.173
860.000, 0.162
860.100, 0.168
860.200, 0.162
860.300, 0.161
860.400, 0.168
860.500, 0.161
860.600, 0.198
860.700, 0.185
860.800, 0.176
860.900, 0.175
861.000, 0.191
861.100, 0.175
861.200, 0.180
861.300, 0.193
861.400, 0.188
861.500, 0.198
861.600, 0.204
861.700, 0.203
861.800, 0.212
861.900, 0.183
862.000, 0.178
862.100, 0.158
862.200, 0.187
862.300, 0.173
862.400, 0.191
862.500, 0.180
862.600, 0.179
862.700, 0.180
862.800, 0.178
862.900, 0.181
863.000, 0.180
863.100, 0.193
863.200, 0.170
863.300, 0.186
863.400, 0.187
863.500, 0.184
863.600, 0.188
863.700, 0.179
863.800, 0.159
863.900, 0.162
864.000, 0.155
864.100, 0.182
864.200, 0.184
864.300, 0.193
864.400, 0.180
864.500, 0.180
864.600, 0.193
864.700, 0.198
864.800, 0.200
864.900, 0.177
865.000, 0.171
865.100, 0.175
865.200, 0.183
865.300, 0.167
865.400, 0.160
865.500, 0.181
865.600, 0.173
865.700, 0.170
865.800, 0.171
865.900, 0.191
866.000, 0.147
866.100, 0.167
866.200, 0.143
866.300, 0.161
866.400, 0.163
866.500, 0.154
866.600, 0.159
866.700, 0.187
866.800, 0.184
866.900, 0.161
867.000, 0.155
867.100, 0.180
867.200, 0.171
867.300, 0.176
867.400, 0.200
867.500, 0.187
867.600, 0.167
867.700, 0.155
867.800, 0.162
867.900, 0.204
868.000, 0.183
868.100, 0.182
868.200, 0.228
868.300, 0.190
868.400, 0.186
868.500, 0.209
868.600, 0.180
868.700, 0.179
868.800, 0.217
868.900, 0.184
869.000, 0.150
869.100, 0.146
869.200, 0.150
869.300, 0.172
869.400, 0.192
869.500, 0.177
869.600, 0.176
869.700, 0.164
869.800, 0.167
869.900, 0.191
870.000, 0.193
870.100, 0.178
870.200, 0.163
870.300, 0.183
870.400, 0.160
870.500, 0.167
870.600, 0.181
870.700, 0.176
870.800, 0.185
870.900, 0.204
871.000, 0.167
871.100, 0.179
871.200, 0.188
871.300, 0.199
871.400, 0.195
871.500, 0.172
871.600, 0.196
871.700, 0.188
871.800, 0.157
871.900, 0.154
872.000, 0.174
872.100, 0.162
872.200, 0.198
872.300, 0.189
872.400, 0.192
872.500, 0.185
872.600, 0.198
872.700, 0.175
872.800, 0.177
872.900, 0.179
873.000, 0.180
873.100, 0.181
873.200, 0.154
873.300, 0.152
873.400, 0.165
873.500, 0.182
873.600, 0.193
873.700, 0.163
873.800, 0.164
873.900, 0.171
874.000, 0.155
874.100, 0.141
874.200, 0.157
874.300, 0.168
874.400, 0.171
874.500, 0.164
874.600, 0.195
874.700, 0.165
874.800, 0.189
874.900, 0.187
875.000, 0.202
875.100, 0.168
875.200, 0.193
875.300, 0.184
875.400, 0.194
875.500, 0.196
875.600, 0.213
875.700, 0.200
875.800, 0.171
875.900, 0.173
876.000, 0.183
876.100, 0.184
876.200, 0.177
876.300, 0.184
876.400, 0.192
876.500, 0.176
876.600, 0.186
876.700, 0.163
876.800, 0.195
876.900, 0.164
877.000, 0.175
877.100, 0.184
877.200, 0.184
877.300, 0.163
877.400, 0.167
877.500, 0.181
877.600, 0.180
877.700, 0.176
877.800, 0.171
877.900, 0.174
878.000, 0.190
878.100, 0.169
878.200, 0.167
878.300, 0.173
878.400, 0.178
878.500, 0.175
878.600, 0.171
878.700, 0.177
878.800, 0.162
878.900, 0.169
879.000, 0.161
879.100, 0.175
879.200, 0.184
879.300, 0.175
879.400, 0.167
879.500, 0.171
879.600, 0.171
879.700, 0.182
879.800, 0.161
879.900, 0.165
880.000, 0.160
880.100, 0.173
880.200, 0.166
880.300, 0.203
880.400, 0.205
880.500, 0.185
880.600, 0.163
880.700, 0.169
880.800, 0.179
880.900, 0.181
881.000, 0.174
881.100, 0.188
881.200, 0.195
881.300, 0.184
881.400, 0.196
881.500, 0.178
881.600, 0.170
881.700, 0.170
881.800, 0.183
881.900, 0.180
882.000, 0.167
882.100, 0.166
882.200, 0.176
882.300, 0.213
882.400, 0.196
882.500, 0.182
882.600, 0.196
882.700, 0.197
882.800, 0.209
882.900, 0.178
883.000, 0.189
883.100, 0.201
883.200, 0.202
883.300, 0.214
883.400, 0.185
883.500, 0.190
883.600, 0.203
883.700, 0.209
883.800, 0.195
883.900, 0.176
884.000, 0.166
884.100, 0.171
884.200, 0.182
884.300, 0.213
884.400, 0.189
884.500, 0.180
884.600, 0.167
884.700, 0.167
884.800, 0.177
884.900, 0.184
885.000, 0.209
885.100, 0.196
885.200, 0.196
885.300, 0.171
885.400, 0.203
885.500, 0.175
885.600, 0.198
885.700, 0.198
885.800, 0.174
885.900, 0.170
886.000, 0.167
886.100, 0.161
886.200, 0.166
886.300, 0.152
886.400, 0.185
886.500, 0.175
886.600, 0.179
886.700, 0.163
886.800, 0.166
886.900, 0.173
887.000, 0.173
887.100, 0.147
887.200, 0.176
887.300, 0.188
887.400, 0.169
887.500, 0.183
887.600, 0.149
887.700, 0.176
887.800, 0.175
887.900, 0.215
888.000, 0.199
888.100, 0.202
888.200, 0.175
888.300, 0.160
888.400, 0.151
888.500, 0.146
888.600, 0.179
888.700, 0.140
888.800, 0.146
888.900, 0.136
889.000, 0.149
889.100, 0.148
889.200, 0.169
889.300, 0.145
889.400, 0.142
889.500, 0.169
889.600, 0.160
889.700, 0.137
889.800, 0.134
889.900, 0.162
890.000, 0.146
890.100, 0.126
890.200, 0.147
890.300, 0.131
890.400, 0.144
890.500, 0.150
890.600, 0.144
890.700, 0.167
890.800, 0.162
890.900, 0.192
891.000, 0.187
891.100, 0.164
891.200, 0.166
891.300, 0.153
891.400, 0.152
891.500, 0.155
891.600, 0.148
891.700, 0.145
891.800, 0.158
891.900, 0.153
892.000, 0.164
892.100, 0.159
892.200, 0.154
892.300, 0.153
892.400, 0.146
892.500, 0.156
892.600, 0.145
892.700, 0.144
892.800, 0.148
892.900, 0.142
893.000, 0.150
893.100, 0.141
893.200, 0.176
893.300, 0.153
893.400, 0.176
893.500, 0.163
893.600, 0.188
893.700, 0.155
893.800, 0.181
893.900, 0.177
894.000, 0.170
894.100, 0.170
894.200, 0.159
894.300, 0.154
894.400, 0.149
894.500, 0.149
894.600, 0.142
894.700, 0.161
894.800, 0.143
894.900, 0.153
895.000, 0.156
895.100, 0.159
895.200, 0.164
895.300, 0.139
895.400, 0.166
895.500, 0.170
895.600, 0.138
895.700, 0.158
895.800, 0.174
895.900, 0.174
896.000, 0.192
896.100, 0.190
896.200, 0.203
896.300, 0.218
896.400, 0.209
896.500, 0.209
896.600, 0.172
896.700, 0.173
896.800, 0.161
896.900, 0.164
897.000, 0.151
897.100, 0.142
897.200, 0.149
897.300, 0.143
897.400, 0.177
897.500, 0.175
897.600, 0.210
897.700, 0.183
897.800, 0.205
897.900, 0.177
898.000, 0.187
898.100, 0.159
898.200, 0.179
898.300, 0.164
898.400, 0.169
898.500, 0.179
898.600, 0.164
898.700, 0.161
898.800, 0.160
898.900, 0.181
899.000, 0.168
899.100, 0.162
899.200, 0.161
899.300, 0.169
899.400, 0.149
899.500, 0.148
899.600, 0.158
899.700, 0.146
899.800, 0.145
899.900, 0.139
900.000, 0.134
900.100, 0.164
900.200, 0.153
900.300, 0.171
900.400, 0.168
900.500, 0.143
900.600, 0.158
900.700, 0.143
900.800, 0.151
900.900, 0.155
901.000, 0.164
901.100, 0.158
901.200, 0.162
901.300, 0.143
901.400, 0.149
901.500, 0.140
901.600, 0.146
901.700, 0.152
901.800, 0.134
901.900, 0.140
902.000, 0.141
902.100, 0.154
902.200, 0.141
902.300, 0.156
902.400, 0.157
902.500, 0.170
902.600, 0.159
902.700, 0.176
902.800, 0.160
902.900, 0.135
903.000, 0.134
903.100, 0.130
903.200, 0.118
903.300, 0.137
903.400, 0.145
903.500, 0.152
903.600, 0.166
903.700, 0.181
903.800, 0.149
903.900, 0.144
904.000, 0.139
904.100, 0.141
904.200, 0.148
904.300, 0.157
904.400, 0.165
904.500, 0.163
904.600, 0.133
904.700, 0.166
904.800, 0.143
904.900, 0.142
905.000, 0.144
905.100, 0.173
905.200, 0.166
905.300, 0.163
905.400, 0.136
905.500, 0.142
905.600, 0.135
905.700, 0.158
905.800, 0.142
905.900, 0.160
906.000, 0.148
906.100, 0.154
906.200, 0.156
906.300, 0.163
906.400, 0.163
906.500, 0.152
906.600, 0.161
906.700, 0.147
906.800, 0.135
906.900, 0.128
907.000, 0.151
907.100, 0.135
907.200, 0.141
907.300, 0.144
907.400, 0.147
907.500, 0.155
907.600, 0.138
907.700, 0.147
907.800, 0.135
907.900, 0.147
908.000, 0.148
908.100, 0.136
908.200, 0.164
908.300, 0.146
908.400, 0.175
908.500, 0.164
908.600, 0.171
908.700, 0.158
908.800, 0.164
908.900, 0.141
909.000, 0.159
909.100, 0.160
909.200, 0.158
909.300, 0.150
909.400, 0.138
909.500, 0.156
909.600, 0.164
909.700, 0.168
909.800, 0.124
909.900, 0.158
910.000, 0.159
910.100, 0.167
910.200, 0.156
910.300, 0.155
910.400, 0.154
910.500, 0.201
910.600, 0.182
910.700, 0.154
910.800, 0.143
910.900, 0.170
911.000, 0.166
911.100, 0.171
911.200, 0.159
911.300, 0.172
911.400, 0.193
911.500, 0.189
911.600, 0.130
911.700, 0.131
911.800, 0.128
911.900, 0.135
912.000, 0.161
912.100, 0.177
912.200, 0.136
912.300, 0.163
912.400, 0.167
912.500, 0.155
912.600, 0.145
912.700, 0.149
912.800, 0.157
912.900, 0.161
913.000, 0.168
913.100, 0.158
913.200, 0.171
913.300, 0.157
913.400, 0.153
913.500, 0.162
913.600, 0.161
913.700, 0.171
913.800, 0.168
913.900, 0.197
914.000, 0.209
914.100, 0.156
914.200, 0.138
914.300, 0.138
914.400, 0.129
914.500, 0.148
914.600, 0.157
914.700, 0.133
914.800, 0.157
914.900, 0.146
915.000, 0.189
915.100, 0.181
915.200, 0.201
915.300, 0.163
915.400, 0.174
915.500, 0.161
915.600, 0.156
915.700, 0.190
915.800, 0.163
915.900, 0.197
916.000, 0.204
916.100, 0.194
916.200, 0.219
916.300, 0.210
916.400, 0.166
916.500, 0.159
916.600, 0.167
916.700, 0.167
916.800, 0.161
916.900, 0.176
917.000, 0.142
917.100, 0.160
917.200, 0.163
917.300, 0.156
917.400, 0.145
917.500, 0.145
917.600, 0.143
917.700, 0.111
917.800, 0.167
917.900, 0.137
918.000, 0.153
918.100, 0.152
918.200, 0.131
918.300, 0.151
918.400, 0.137
918.500, 0.136
918.600, 0.146
918.700, 0.150
918.800, 0.198
918.900, 0.174
919.000, 0.151
919.100, 0.153
919.200, 0.133
919.300, 0.156
919.400, 0.146
919.500, 0.153
919.600, 0.136
919.700, 0.119
919.800, 0.139
919.900, 0.139
920.000, 0.153
920.100, 0.140
920.200, 0.168
920.300, 0.154
920.400, 0.144
920.500, 0.141
920.600, 0.166
920.700, 0.146
920.800, 0.124
920.900, 0.131
921.000, 0.159
921.100, 0.171
921.200, 0.149
921.300, 0.151
921.400, 0.141
921.500, 0.161
921.600, 0.168
921.700, 0.166
921.800, 0.155
921.900, 0.156
922.000, 0.153
922.100, 0.117
922.200, 0.152
922.300, 0.145
922.400, 0.156
922.500, 0.170
922.600, 0.142
922.700, 0.135
922.800, 0.171
922.900, 0.180
923.000, 0.153
923.100, 0.130
923.200, 0.164
923.300, 0.125
923.400, 0.144
923.500, 0.149
923.600, 0.140
923.700, 0.130
923.800, 0.147
923.900, 0.180
924.000, 0.139
924.100, 0.136
924.200, 0.130
924.300, 0.143
924.400, 0.142
924.500, 0.156
924.600, 0.154
924.700, 0.145
924.800, 0.151
924.900, 0.162
925.000, 0.193
925.100, 0.166
925.200, 0.198
925.300, 0.176
925.400, 0.178
925.500, 0.173
925.600, 0.157
925.700, 0.170
925.800, 0.151
925.900, 0.147
926.000, 0.158
926.100, 0.146
926.200, 0.171
926.300, 0.179
926.400, 0.180
926.500, 0.201
926.600, 0.189
926.700, 0.161
926.800, 0.189
926.900, 0.190
927.000, 0.186
927.100, 0.148
927.200, 0.163
927.300, 0.148
927.400, 0.168
927.500, 0.160
927.600, 0.151
927.700, 0.178
927.800, 0.175
927.900, 0.188
928.000, 0.207
928.100, 0.182
928.200, 0.183
928.300, 0.171
928.400, 0.145
928.500, 0.155
928.600, 0.162
928.700, 0.152
928.800, 0.172
928.900, 0.159
929.000, 0.176
929.100, 0.162
929.200, 0.164
929.300, 0.151
929.400, 0.146
929.500, 0.166
929.600, 0.173
929.700, 0.177
929.800, 0.161
929.900, 0.162
930.000, 0.198
930.100, 0.184
930.200, 0.201
930.300, 0.172
930.400, 0.164
930.500, 0.167
930.600, 0.157
930.700, 0.149
930.800, 0.150
930.900, 0.158
931.000, 0.142
931.100, 0.165
931.200, 0.175
931.300, 0.204
931.400, 0.183
931.500, 0.183
931.600, 0.223
931.700, 0.230
931.800, 0.239
931.900, 0.243
932.000, 0.219
932.100, 0.228
932.200, 0.254
932.300, 0.261
932.400, 0.273
932.500, 0.235
932.600, 0.190
932.700, 0.197
932.800, 0.230
932.900, 0.211
933.000, 0.199
933.100, 0.223
933.200, 0.231
933.300, 0.212
933.400, 0.214
933.500, 0.173
933.600, 0.221
933.700, 0.206
933.800, 0.191
933.900, 0.169
934.000, 0.173
934.100, 0.174
934.200, 0.183
934.300, 0.162
934.400, 0.170
934.500, 0.174
934.600, 0.171
934.700, 0.165
934.800, 0.148
934.900, 0.135
935.000, 0.123
935.100, 0.148
935.200, 0.143
935.300, 0.141
935.400, 0.143
935.500, 0.166
935.600, 0.182
935.700, 0.187
935.800, 0.152
935.900, 0.161
936.000, 0.191
936.100, 0.199
936.200, 0.216
936.300, 0.204
936.400, 0.176
936.500, 0.195
936.600, 0.203
936.700, 0.167
936.800, 0.211
936.900, 0.183
937.000, 0.166
937.100, 0.144
937.200, 0.145
937.300, 0.143
937.400, 0.141
937.500, 0.180
937.600, 0.168
937.700, 0.174
937.800, 0.167
937.900, 0.155
938.000, 0.141
938.100, 0.141
938.200, 0.150
938.300, 0.174
938.400, 0.171
938.500, 0.160
938.600, 0.133
938.700, 0.134
938.800, 0.122
938.900, 0.152
939.000, 0.175
939.100, 0.180
939.200, 0.147
939.300, 0.146
939.400, 0.149
939.500, 0.174
939.600, 0.177
939.700, 0.134
939.800, 0.134
939.900, 0.149
940.000, 0.166
940.100, 0.167
940.200, 0.177
940.300, 0.186
940.400, 0.154
940.500, 0.158
940.600, 0.138
940.700, 0.164
940.800, 0.163
940.900, 0.139
941.000, 0.146
941.100, 0.151
941.200, 0.152
941.300, 0.152
941.400, 0.160
941.500, 0.162
941.600, 0.145
941.700, 0.172
941.800, 0.178
941.900, 0.163
942.000, 0.176
942.100, 0.170
942.200, 0.168
942.300, 0.183
942.400, 0.161
942.500, 0.127
942.600, 0.146
942.700, 0.171
942.800, 0.163
942.900, 0.171
943.000, 0.163
943.100, 0.161
943.200, 0.154
943.300, 0.151
943.400, 0.124
943.500, 0.143
943.600, 0.146
943.700, 0.135
943.800, 0.153
943.900, 0.141
944.000, 0.139
944.100, 0.148
944.200, 0.154
944.300, 0.147
944.400, 0.150
944.500, 0.129
944.600, 0.137
944.700, 0.146
944.800, 0.158
944.900, 0.140
945.000, 0.139
945.100, 0.138
945.200, 0.135
945.300, 0.135
945.400, 0.153
945.500, 0.136
945.600, 0.176
945.700, 0.136
945.800, 0.146
945.900, 0.162
946.000, 0.150
946.100, 0.173
946.200, 0.164
946.300, 0.142
946.400, 0.162
946.500, 0.132
946.600, 0.137
946.700, 0.142
946.800, 0.152
946.900, 0.174
947.000, 0.169
947.100, 0.155
947.200, 0.158
947.300, 0.174
947.400, 0.161
947.500, 0.169
947.600, 0.154
947.700, 0.145
947.800, 0.156
947.900, 0.142
948.000, 0.154
948.100, 0.181
948.200, 0.152
948.300, 0.137
948.400, 0.128
948.500, 0.137
948.600, 0.130
948.700, 0.155
948.800, 0.143
948.900, 0.156
949.000, 0.172
949.100, 0.179
949.200, 0.173
949.300, 0.163
949.400, 0.133
949.500, 0.150
949.600, 0.149
949.700, 0.163
949.800, 0.179
949.900, 0.179
950.000, 0.167
950.100, 0.146
950.200, 0.183
950.300, 0.184
950.400, 0.147
950.500, 0.150
950.600, 0.159
950.700, 0.173
950.800, 0.162
950.900, 0.151
951.000, 0.178
951.100, 0.195
951.200, 0.189
951.300, 0.166
951.400, 0.181
951.500, 0.178
951.600, 0.174
951.700, 0.167
951.800, 0.151
951.900, 0.164
952.000, 0.137
952.100, 0.136
952.200, 0.159
952.300, 0.135
952.400, 0.154
952.500, 0.181
952.600, 0.142
952.700, 0.123
952.800, 0.133
952.900, 0.135
953.000, 0.156
953.100, 0.142
953.200, 0.153
953.300, 0.141
953.400, 0.149
953.500, 0.137
953.600, 0.127
953.700, 0.155
953.800, 0.161
953.900, 0.151
954.000, 0.131
954.100, 0.158
954.200, 0.172
954.300, 0.161
954.400, 0.146
954.500, 0.175
954.600, 0.167
954.700, 0.150
954.800, 0.130
954.900, 0.170
955.000, 0.171
955.100, 0.159
955.200, 0.156
955.300, 0.172
955.400, 0.169
955.500, 0.160
955.600, 0.148
955.700, 0.147
955.800, 0.156
955.900, 0.143
956.000, 0.164
956.100, 0.179
956.200, 0.160
956.300, 0.150
956.400, 0.137
956.500, 0.155
956.600, 0.157
956.700, 0.157
956.800, 0.186
956.900, 0.178
957.000, 0.163
957.100, 0.198
957.200, 0.185
957.300, 0.180
957.400, 0.173
957.500, 0.187
957.600, 0.146
957.700, 0.187
957.800, 0.159
957.900, 0.204
958.000, 0.167
958.100, 0.181
958.200, 0.180
958.300, 0.179
958.400, 0.146
958.500, 0.149
958.600, 0.148
958.700, 0.175
958.800, 0.159
958.900, 0.135
959.000, 0.154
959.100, 0.144
959.200, 0.137
959.300, 0.147
959.400, 0.139
959.500, 0.128
959.600, 0.144
959.700, 0.158
959.800, 0.140
959.900, 0.142
960.000, 0.139
960.100, 0.148
960.200, 0.141
960.300, 0.131
960.400, 0.115
960.500, 0.125
960.600, 0.128
960.700, 0.124
960.800, 0.120
960.900, 0.138
961.000, 0.156
961.100, 0.132
961.200, 0.139
961.300, 0.127
961.400, 0.157
961.500, 0.141
961.600, 0.134
961.700, 0.128
961.800, 0.113
961.900, 0.125
962.000, 0.125
962.100, 0.130
962.200, 0.132
962.300, 0.155
962.400, 0.170
962.500, 0.172
962.600, 0.203
962.700, 0.166
962.800, 0.167
962.900, 0.158
963.000, 0.138
963.100, 0.153
963.200, 0.137
963.300, 0.150
963.400, 0.155
963.500, 0.129
963.600, 0.147
963.700, 0.140
963.800, 0.126
963.900, 0.128
964.000, 0.127
964.100, 0.133
964.200, 0.150
964.300, 0.123
964.400, 0.119
964.500, 0.125
964.600, 0.122
964.700, 0.141
964.800, 0.139
964.900, 0.139
965.000, 0.133
965.100, 0.122
965.200, 0.128
965.300, 0.128
965.400, 0.111
965.500, 0.120
965.600, 0.109
965.700, 0.134
965.800, 0.130
965.900, 0.125
966.000, 0.146
966.100, 0.147
966.200, 0.124
966.300, 0.151
966.400, 0.147
966.500, 0.115
966.600, 0.127
966.700, 0.120
966.800, 0.121
966.900, 0.107
967.000, 0.119
967.100, 0.123
967.200, 0.147
967.300, 0.149
967.400, 0.156
967.500, 0.144
967.600, 0.138
967.700, 0.139
967.800, 0.135
967.900, 0.114
968.000, 0.105
968.100, 0.099
968.200, 0.115
968.300, 0.120
968.400, 0.132
968.500, 0.119
968.600, 0.123
968.700, 0.155
968.800, 0.137
968.900, 0.107
969.000, 0.112
969.100, 0.108
969.200, 0.107
969.300, 0.110
969.400, 0.114
969.500, 0.120
969.600, 0.113
969.700, 0.127
969.800, 0.147
969.900, 0.133
970.000, 0.107
970.100, 0.103
970.200, 0.116
970.300, 0.106
970.400, 0.115
970.500, 0.149
970.600, 0.132
970.700, 0.114
970.800, 0.151
970.900, 0.106
971.000, 0.114
971.100, 0.111
971.200, 0.115
971.300, 0.150
971.400, 0.160
971.500, 0.150
971.600, 0.130
971.700, 0.127
971.800, 0.139
971.900, 0.115
972.000, 0.105
972.100, 0.107
972.200, 0.107
972.300, 0.109
972.400, 0.106
972.500, 0.122
972.600, 0.116
972.700, 0.108
972.800, 0.113
972.900, 0.122
973.000, 0.128
973.100, 0.112
973.200, 0.128
973.300, 0.110
973.400, 0.130
973.500, 0.123
973.600, 0.131
973.700, 0.117
973.800, 0.111
973.900, 0.121
974.000, 0.116
974.100, 0.150
974.200, 0.130
974.300, 0.129
974.400, 0.142
974.500, 0.136
974.600, 0.120
974.700, 0.117
974.800, 0.123
974.900, 0.134
975.000, 0.120
975.100, 0.127
975.200, 0.095
975.300, 0.114
975.400, 0.149
975.500, 0.112
975.600, 0.133
975.700, 0.135
975.800, 0.132
975.900, 0.140
976.000, 0.135
976.100, 0.147
976.200, 0.121
976.300, 0.130
976.400, 0.128
976.500, 0.113
976.600, 0.099
976.700, 0.098
976.800, 0.102
976.900, 0.113
977.000, 0.108
977.100, 0.110
977.200, 0.099
977.300, 0.118
977.400, 0.116
977.500, 0.152
977.600, 0.123
977.700, 0.137
977.800, 0.144
977.900, 0.154
978.000, 0.111
978.100, 0.116
978.200, 0.120
978.300, 0.139
978.400, 0.113
978.500, 0.134
978.600, 0.124
978.700, 0.115
978.800, 0.115
978.900, 0.134
979.000, 0.131
979.100, 0.133
979.200, 0.103
979.300, 0.106
979.400, 0.109
979.500, 0.101
979.600, 0.109
979.700, 0.114
979.800, 0.099
979.900, 0.116
980.000, 0.109
980.100, 0.095
980.200, 0.131
980.300, 0.123
980.400, 0.133
980.500, 0.111
980.600, 0.102
980.700, 0.121
980.800, 0.133
980.900, 0.108
981.000, 0.107
981.100, 0.119
981.200, 0.129
981.300, 0.124
981.400, 0.122
981.500, 0.137
981.600, 0.111
981.700, 0.145
981.800, 0.119
981.900, 0.110
982.000, 0.126
982.100, 0.115
982.200, 0.134
982.300, 0.112
982.400, 0.109
982.500, 0.109
982.600, 0.134
982.700, 0.119
982.800, 0.122
982.900, 0.126
983.000, 0.114
983.100, 0.116
983.200, 0.123
983.300, 0.132
983.400, 0.125
983.500, 0.127
983.600, 0.125
983.700, 0.114
983.800, 0.125
983.900, 0.100
984.000, 0.111
984.100, 0.110
984.200, 0.113
984.300, 0.142
984.400, 0.139
984.500, 0.138
984.600, 0.121
984.700, 0.125
984.800, 0.110
984.900, 0.112
985.000, 0.118
985.100, 0.132
985.200, 0.108
985.300, 0.138
985.400, 0.118
985.500, 0.107
985.600, 0.111
985.700, 0.106
985.800, 0.117
985.900, 0.107
986.000, 0.130
986.100, 0.160
986.200, 0.151
986.300, 0.165
986.400, 0.148
986.500, 0.154
986.600, 0.140
986.700, 0.119
986.800, 0.102
986.900, 0.142
987.000, 0.151
987.100, 0.141
987.200, 0.137
987.300, 0.112
987.400, 0.122
987.500, 0.129
987.600, 0.165
987.700, 0.109
987.800, 0.138
987.900, 0.107
988.000, 0.143
988.100, 0.128
988.200, 0.127
988.300, 0.117
988.400, 0.125
988.500, 0.131
988.600, 0.142
988.700, 0.165
988.800, 0.158
988.900, 0.149
989.000, 0.137
989.100, 0.136
989.200, 0.137
989.300, 0.133
989.400, 0.136
989.500, 0.137
989.600, 0.134
989.700, 0.149
989.800, 0.133
989.900, 0.152
990.000, 0.154
990.100, 0.172
990.200, 0.165
990.300, 0.164
990.400, 0.153
990.500, 0.111
990.600, 0.114
990.700, 0.129
990.800, 0.121
990.900, 0.122
991.000, 0.149
991.100, 0.121
991.200, 0.146
991.300, 0.109
991.400, 0.115
991.500, 0.133
991.600, 0.108
991.700, 0.172
991.800, 0.148
991.900, 0.197
992.000, 0.184
992.100, 0.161
992.200, 0.156
992.300, 0.154
992.400, 0.132
992.500, 0.127
992.600, 0.131
992.700, 0.128
992.800, 0.125
992.900, 0.137
993.000, 0.125
993.100, 0.126
993.200, 0.126
993.300, 0.118
993.400, 0.159
993.500, 0.189
993.600, 0.191
993.700, 0.175
993.800, 0.137
993.900, 0.106
994.000, 0.112
994.100, 0.105
994.200, 0.108
994.300, 0.107
994.400, 0.108
994.500, 0.127
994.600, 0.128
994.700, 0.114
994.800, 0.107
994.900, 0.102
995.000, 0.127
995.100, 0.123
995.200, 0.121
995.300, 0.101
995.400, 0.100
995.500, 0.116
995.600, 0.135
995.700, 0.114
995.800, 0.117
995.900, 0.100
996.000, 0.137
996.100, 0.146
996.200, 0.144
996.300, 0.111
996.400, 0.137
996.500, 0.124
996.600, 0.113
996.700, 0.140
996.800, 0.116
996.900, 0.124
997.000, 0.085
997.100, 0.106
997.200, 0.141
997.300, 0.139
997.400, 0.123
997.500, 0.109
997.600, 0.117
997.700, 0.093
997.800, 0.106
997.900, 0.101
998.000, 0.134
998.100, 0.148
998.200, 0.108
998.300, 0.087
998.400, 0.081
998.500, 0.087
998.600, 0.091
998.700, 0.097
998.800, 0.092
998.900, 0.115
999.000, 0.103
999.100, 0.109
999.200, 0.101
999.300, 0.110
999.400, 0.115
999.500, 0.113
999.600, 0.114
999.700, 0.080
999.800, 0.084
999.900, 0.009
1000.000, 0.001
