Time (ps), RMSD (nm)
0.000, 0.000
0.100, 0.278
0.200, 0.244
0.300, 0.263
0.400, 0.264
0.500, 0.284
0.600, 0.275
0.700, 0.257
0.800, 0.227
0.900, 0.266
1.000, 0.256
1.100, 0.245
1.200, 0.227
1.300, 0.225
1.400, 0.243
1.500, 0.249
1.600, 0.244
1.700, 0.233
1.800, 0.217
1.900, 0.223
2.000, 0.209
2.100, 0.206
2.200, 0.210
2.300, 0.197
2.400, 0.215
2.500, 0.235
2.600, 0.217
2.700, 0.219
2.800, 0.205
2.900, 0.196
3.000, 0.213
3.100, 0.204
3.200, 0.208
3.300, 0.192
3.400, 0.198
3.500, 0.205
3.600, 0.204
3.700, 0.212
3.800, 0.224
3.900, 0.211
4.000, 0.214
4.100, 0.200
4.200, 0.217
4.300, 0.217
4.400, 0.209
4.500, 0.200
4.600, 0.191
4.700, 0.211
4.800, 0.215
4.900, 0.208
5.000, 0.220
5.100, 0.226
5.200, 0.231
5.300, 0.224
5.400, 0.214
5.500, 0.224
5.600, 0.222
5.700, 0.267
5.800, 0.233
5.900, 0.232
6.000, 0.267
6.100, 0.241
6.200, 0.228
6.300, 0.242
6.400, 0.227
6.500, 0.241
6.600, 0.245
6.700, 0.236
6.800, 0.221
6.900, 0.245
7.000, 0.231
7.100, 0.232
7.200, 0.244
7.300, 0.244
7.400, 0.277
7.500, 0.250
7.600, 0.273
7.700, 0.263
7.800, 0.234
7.900, 0.203
8.000, 0.224
8.100, 0.196
8.200, 0.209
8.300, 0.214
8.400, 0.202
8.500, 0.211
8.600, 0.192
8.700, 0.197
8.800, 0.202
8.900, 0.196
9.000, 0.220
9.100, 0.219
9.200, 0.214
9.300, 0.211
9.400, 0.215
9.500, 0.223
9.600, 0.207
9.700, 0.213
9.800, 0.249
9.900, 0.251
10.000, 0.239
10.100, 0.233
10.200, 0.205
10.300, 0.224
10.400, 0.208
10.500, 0.208
10.600, 0.213
10.700, 0.199
10.800, 0.189
10.900, 0.196
11.000, 0.193
11.100, 0.207
11.200, 0.201
11.300, 0.199
11.400, 0.209
11.500, 0.209
11.600, 0.209
11.700, 0.213
11.800, 0.203
11.900, 0.208
12.000, 0.217
12.100, 0.218
12.200, 0.220
12.300, 0.223
12.400, 0.247
12.500, 0.236
12.600, 0.230
12.700, 0.241
12.800, 0.236
12.900, 0.229
13.000, 0.231
13.100, 0.228
13.200, 0.233
13.300, 0.221
13.400, 0.230
13.500, 0.234
13.600, 0.244
13.700, 0.244
13.800, 0.231
13.900, 0.238
14.000, 0.242
14.100, 0.250
14.200, 0.262
14.300, 0.264
14.400, 0.257
14.500, 0.240
14.600, 0.250
14.700, 0.237
14.800, 0.236
14.900, 0.245
15.000, 0.251
15.100, 0.233
15.200, 0.237
15.300, 0.249
15.400, 0.243
15.500, 0.233
15.600, 0.249
15.700, 0.236
15.800, 0.241
15.900, 0.235
16.000, 0.242
16.100, 0.225
16.200, 0.245
16.300, 0.277
16.400, 0.242
16.500, 0.242
16.600, 0.248
16.700, 0.240
16.800, 0.235
16.900, 0.252
17.000, 0.268
17.100, 0.292
17.200, 0.292
17.300, 0.272
17.400, 0.307
17.500, 0.316
17.600, 0.293
17.700, 0.298
17.800, 0.263
17.900, 0.285
18.000, 0.280
18.100, 0.267
18.200, 0.270
18.300, 0.263
18.400, 0.251
18.500, 0.234
18.600, 0.240
18.700, 0.246
18.800, 0.245
18.900, 0.247
19.000, 0.229
19.100, 0.219
19.200, 0.232
19.300, 0.248
19.400, 0.228
19.500, 0.225
19.600, 0.248
19.700, 0.241
19.800, 0.234
19.900, 0.234
20.000, 0.234
20.100, 0.214
20.200, 0.208
20.300, 0.211
20.400, 0.229
20.500, 0.224
20.600, 0.235
20.700, 0.214
20.800, 0.215
20.900, 0.220
21.000, 0.229
21.100, 0.234
21.200, 0.247
21.300, 0.243
21.400, 0.252
21.500, 0.257
21.600, 0.249
21.700, 0.245
21.800, 0.238
21.900, 0.254
22.000, 0.250
22.100, 0.248
22.200, 0.266
22.300, 0.260
22.400, 0.276
22.500, 0.270
22.600, 0.284
22.700, 0.262
22.800, 0.281
22.900, 0.270
23.000, 0.249
23.100, 0.239
23.200, 0.242
23.300, 0.231
23.400, 0.239
23.500, 0.231
23.600, 0.241
23.700, 0.248
23.800, 0.247
23.900, 0.237
24.000, 0.231
24.100, 0.205
24.200, 0.251
24.300, 0.237
24.400, 0.214
24.500, 0.221
24.600, 0.218
24.700, 0.240
24.800, 0.215
24.900, 0.206
25.000, 0.205
25.100, 0.213
25.200, 0.215
25.300, 0.210
25.400, 0.205
25.500, 0.210
25.600, 0.224
25.700, 0.198
25.800, 0.207
25.900, 0.212
26.000, 0.199
26.100, 0.197
26.200, 0.203
26.300, 0.195
26.400, 0.214
26.500, 0.223
26.600, 0.220
26.700, 0.199
26.800, 0.205
26.900, 0.186
27.000, 0.202
27.100, 0.207
27.200, 0.235
27.300, 0.239
27.400, 0.218
27.500, 0.206
27.600, 0.206
27.700, 0.203
27.800, 0.192
27.900, 0.220
28.000, 0.204
28.100, 0.196
28.200, 0.225
28.300, 0.214
28.400, 0.215
28.500, 0.209
28.600, 0.209
28.700, 0.206
28.800, 0.199
28.900, 0.199
29.000, 0.209
29.100, 0.203
29.200, 0.204
29.300, 0.223
29.400, 0.227
29.500, 0.201
29.600, 0.211
29.700, 0.197
29.800, 0.193
29.900, 0.188
30.000, 0.211
30.100, 0.194
30.200, 0.215
30.300, 0.203
30.400, 0.210
30.500, 0.209
30.600, 0.207
30.700, 0.217
30.800, 0.203
30.900, 0.198
31.000, 0.222
31.100, 0.209
31.200, 0.205
31.300, 0.204
31.400, 0.197
31.500, 0.199
31.600, 0.201
31.700, 0.182
31.800, 0.198
31.900, 0.207
32.000, 0.195
32.100, 0.195
32.200, 0.199
32.300, 0.208
32.400, 0.207
32.500, 0.215
32.600, 0.224
32.700, 0.226
32.800, 0.231
32.900, 0.204
33.000, 0.234
33.100, 0.222
33.200, 0.240
33.300, 0.251
33.400, 0.212
33.500, 0.223
33.600, 0.216
33.700, 0.211
33.800, 0.212
33.900, 0.225
34.000, 0.219
34.100, 0.222
34.200, 0.222
34.300, 0.219
34.400, 0.211
34.500, 0.217
34.600, 0.213
34.700, 0.211
34.800, 0.202
34.900, 0.205
35.000, 0.204
35.100, 0.192
35.200, 0.191
35.300, 0.199
35.400, 0.199
35.500, 0.193
35.600, 0.193
35.700, 0.213
35.800, 0.209
35.900, 0.202
36.000, 0.211
36.100, 0.209
36.200, 0.201
36.300, 0.214
36.400, 0.204
36.500, 0.208
36.600, 0.194
36.700, 0.214
36.800, 0.219
36.900, 0.206
37.000, 0.209
37.100, 0.211
37.200, 0.203
37.300, 0.193
37.400, 0.205
37.500, 0.192
37.600, 0.201
37.700, 0.203
37.800, 0.209
37.900, 0.223
38.000, 0.205
38.100, 0.222
38.200, 0.222
38.300, 0.216
38.400, 0.214
38.500, 0.207
38.600, 0.205
38.700, 0.184
38.800, 0.189
38.900, 0.174
39.000, 0.170
39.100, 0.202
39.200, 0.195
39.300, 0.193
39.400, 0.202
39.500, 0.204
39.600, 0.215
39.700, 0.209
39.800, 0.233
39.900, 0.205
40.000, 0.203
40.100, 0.219
40.200, 0.205
40.300, 0.212
40.400, 0.201
40.500, 0.208
40.600, 0.213
40.700, 0.190
40.800, 0.206
40.900, 0.188
41.000, 0.206
41.100, 0.191
41.200, 0.206
41.300, 0.212
41.400, 0.232
41.500, 0.220
41.600, 0.238
41.700, 0.204
41.800, 0.209
41.900, 0.208
42.000, 0.186
42.100, 0.214
42.200, 0.216
42.300, 0.225
42.400, 0.198
42.500, 0.201
42.600, 0.201
42.700, 0.207
42.800, 0.193
42.900, 0.215
43.000, 0.198
43.100, 0.204
43.200, 0.190
43.300, 0.221
43.400, 0.197
43.500, 0.187
43.600, 0.210
43.700, 0.215
43.800, 0.221
43.900, 0.225
44.000, 0.212
44.100, 0.223
44.200, 0.223
44.300, 0.231
44.400, 0.207
44.500, 0.229
44.600, 0.225
44.700, 0.244
44.800, 0.240
44.900, 0.219
45.000, 0.210
45.100, 0.242
45.200, 0.226
45.300, 0.214
45.400, 0.213
45.500, 0.217
45.600, 0.220
45.700, 0.225
45.800, 0.232
45.900, 0.215
46.000, 0.241
46.100, 0.230
46.200, 0.217
46.300, 0.246
46.400, 0.226
46.500, 0.234
46.600, 0.229
46.700, 0.250
46.800, 0.216
46.900, 0.195
47.000, 0.237
47.100, 0.227
47.200, 0.230
47.300, 0.229
47.400, 0.220
47.500, 0.213
47.600, 0.236
47.700, 0.243
47.800, 0.207
47.900, 0.211
48.000, 0.213
48.100, 0.214
48.200, 0.227
48.300, 0.213
48.400, 0.202
48.500, 0.222
48.600, 0.215
48.700, 0.199
48.800, 0.188
48.900, 0.177
49.000, 0.178
49.100, 0.192
49.200, 0.191
49.300, 0.194
49.400, 0.195
49.500, 0.220
49.600, 0.206
49.700, 0.197
49.800, 0.217
49.900, 0.209
50.000, 0.235
50.100, 0.206
50.200, 0.215
50.300, 0.210
50.400, 0.222
50.500, 0.199
50.600, 0.201
50.700, 0.192
50.800, 0.189
50.900, 0.189
51.000, 0.176
51.100, 0.176
51.200, 0.181
51.300, 0.184
51.400, 0.170
51.500, 0.177
51.600, 0.195
51.700, 0.217
51.800, 0.200
51.900, 0.197
52.000, 0.226
52.100, 0.236
52.200, 0.208
52.300, 0.222
52.400, 0.203
52.500, 0.199
52.600, 0.212
52.700, 0.230
52.800, 0.213
52.900, 0.212
53.000, 0.202
53.100, 0.207
53.200, 0.222
53.300, 0.226
53.400, 0.235
53.500, 0.219
53.600, 0.210
53.700, 0.201
53.800, 0.200
53.900, 0.195
54.000, 0.182
54.100, 0.195
54.200, 0.183
54.300, 0.202
54.400, 0.192
54.500, 0.210
54.600, 0.200
54.700, 0.199
54.800, 0.223
54.900, 0.242
55.000, 0.242
55.100, 0.231
55.200, 0.237
55.300, 0.240
55.400, 0.233
55.500, 0.250
55.600, 0.210
55.700, 0.247
55.800, 0.263
55.900, 0.251
56.000, 0.216
56.100, 0.223
56.200, 0.200
56.300, 0.229
56.400, 0.207
56.500, 0.203
56.600, 0.198
56.700, 0.197
56.800, 0.211
56.900, 0.211
57.000, 0.202
57.100, 0.197
57.200, 0.232
57.300, 0.222
57.400, 0.213
57.500, 0.235
57.600, 0.204
57.700, 0.226
57.800, 0.228
57.900, 0.234
58.000, 0.218
58.100, 0.218
58.200, 0.223
58.300, 0.202
58.400, 0.187
58.500, 0.202
58.600, 0.199
58.700, 0.196
58.800, 0.211
58.900, 0.203
59.000, 0.183
59.100, 0.204
59.200, 0.190
59.300, 0.203
59.400, 0.193
59.500, 0.189
59.600, 0.200
59.700, 0.189
59.800, 0.179
59.900, 0.177
60.000, 0.181
60.100, 0.193
60.200, 0.217
60.300, 0.208
60.400, 0.201
60.500, 0.196
60.600, 0.209
60.700, 0.224
60.800, 0.219
60.900, 0.200
61.000, 0.193
61.100, 0.191
61.200, 0.193
61.300, 0.197
61.400, 0.181
61.500, 0.171
61.600, 0.176
61.700, 0.173
61.800, 0.181
61.900, 0.178
62.000, 0.183
62.100, 0.179
62.200, 0.190
62.300, 0.197
62.400, 0.200
62.500, 0.187
62.600, 0.195
62.700, 0.201
62.800, 0.189
62.900, 0.189
63.000, 0.175
63.100, 0.181
63.200, 0.205
63.300, 0.172
63.400, 0.168
63.500, 0.176
63.600, 0.170
63.700, 0.160
63.800, 0.170
63.900, 0.172
64.000, 0.191
64.100, 0.200
64.200, 0.201
64.300, 0.179
64.400, 0.179
64.500, 0.164
64.600, 0.173
64.700, 0.167
64.800, 0.186
64.900, 0.203
65.000, 0.205
65.100, 0.201
65.200, 0.189
65.300, 0.202
65.400, 0.182
65.500, 0.179
65.600, 0.191
65.700, 0.195
65.800, 0.182
65.900, 0.198
66.000, 0.208
66.100, 0.199
66.200, 0.173
66.300, 0.161
66.400, 0.177
66.500, 0.201
66.600, 0.188
66.700, 0.167
66.800, 0.187
66.900, 0.185
67.000, 0.185
67.100, 0.187
67.200, 0.188
67.300, 0.187
67.400, 0.190
67.500, 0.190
67.600, 0.178
67.700, 0.167
67.800, 0.184
67.900, 0.190
68.000, 0.186
68.100, 0.184
68.200, 0.180
68.300, 0.172
68.400, 0.183
68.500, 0.164
68.600, 0.168
68.700, 0.153
68.800, 0.156
68.900, 0.161
69.000, 0.184
69.100, 0.176
69.200, 0.167
69.300, 0.180
69.400, 0.195
69.500, 0.226
69.600, 0.216
69.700, 0.221
69.800, 0.229
69.900, 0.212
70.000, 0.221
70.100, 0.196
70.200, 0.200
70.300, 0.207
70.400, 0.194
70.500, 0.200
70.600, 0.174
70.700, 0.183
70.800, 0.173
70.900, 0.175
71.000, 0.192
71.100, 0.179
71.200, 0.176
71.300, 0.172
71.400, 0.160
71.500, 0.184
71.600, 0.180
71.700, 0.186
71.800, 0.185
71.900, 0.188
72.000, 0.192
72.100, 0.202
72.200, 0.220
72.300, 0.175
72.400, 0.168
72.500, 0.178
72.600, 0.176
72.700, 0.173
72.800, 0.172
72.900, 0.182
73.000, 0.183
73.100, 0.163
73.200, 0.150
73.300, 0.180
73.400, 0.199
73.500, 0.188
73.600, 0.197
73.700, 0.182
73.800, 0.190
73.900, 0.180
74.000, 0.170
74.100, 0.186
74.200, 0.196
74.300, 0.176
74.400, 0.180
74.500, 0.201
74.600, 0.169
74.700, 0.180
74.800, 0.167
74.900, 0.174
75.000, 0.191
75.100, 0.181
75.200, 0.214
75.300, 0.200
75.400, 0.210
75.500, 0.200
75.600, 0.206
75.700, 0.216
75.800, 0.193
75.900, 0.186
76.000, 0.172
76.100, 0.175
76.200, 0.176
76.300, 0.185
76.400, 0.186
76.500, 0.205
76.600, 0.212
76.700, 0.199
76.800, 0.211
76.900, 0.193
77.000, 0.204
77.100, 0.188
77.200, 0.199
77.300, 0.200
77.400, 0.210
77.500, 0.205
77.600, 0.202
77.700, 0.185
77.800, 0.175
77.900, 0.191
78.000, 0.194
78.100, 0.219
78.200, 0.201
78.300, 0.220
78.400, 0.199
78.500, 0.208
78.600, 0.196
78.700, 0.197
78.800, 0.194
78.900, 0.197
79.000, 0.201
79.100, 0.204
79.200, 0.200
79.300, 0.183
79.400, 0.195
79.500, 0.203
79.600, 0.223
79.700, 0.202
79.800, 0.210
79.900, 0.187
80.000, 0.195
80.100, 0.195
80.200, 0.207
80.300, 0.215
80.400, 0.213
80.500, 0.212
80.600, 0.194
80.700, 0.226
80.800, 0.216
80.900, 0.213
81.000, 0.231
81.100, 0.230
81.200, 0.228
81.300, 0.244
81.400, 0.199
81.500, 0.211
81.600, 0.235
81.700, 0.229
81.800, 0.216
81.900, 0.226
82.000, 0.217
82.100, 0.222
82.200, 0.205
82.300, 0.226
82.400, 0.208
82.500, 0.205
82.600, 0.209
82.700, 0.215
82.800, 0.256
82.900, 0.249
83.000, 0.253
83.100, 0.214
83.200, 0.202
83.300, 0.187
83.400, 0.189
83.500, 0.199
83.600, 0.191
83.700, 0.186
83.800, 0.200
83.900, 0.184
84.000, 0.202
84.100, 0.188
84.200, 0.199
84.300, 0.197
84.400, 0.200
84.500, 0.209
84.600, 0.228
84.700, 0.203
84.800, 0.214
84.900, 0.214
85.000, 0.232
85.100, 0.226
85.200, 0.226
85.300, 0.221
85.400, 0.213
85.500, 0.199
85.600, 0.210
85.700, 0.194
85.800, 0.208
85.900, 0.193
86.000, 0.191
86.100, 0.228
86.200, 0.207
86.300, 0.219
86.400, 0.226
86.500, 0.210
86.600, 0.194
86.700, 0.208
86.800, 0.194
86.900, 0.210
87.000, 0.224
87.100, 0.226
87.200, 0.234
87.300, 0.232
87.400, 0.235
87.500, 0.215
87.600, 0.215
87.700, 0.197
87.800, 0.211
87.900, 0.229
88.000, 0.237
88.100, 0.224
88.200, 0.224
88.300, 0.218
88.400, 0.218
88.500, 0.244
88.600, 0.227
88.700, 0.252
88.800, 0.240
88.900, 0.216
89.000, 0.210
89.100, 0.204
89.200, 0.240
89.300, 0.226
89.400, 0.236
89.500, 0.234
89.600, 0.239
89.700, 0.226
89.800, 0.230
89.900, 0.220
90.000, 0.230
90.100, 0.235
90.200, 0.271
90.300, 0.234
90.400, 0.230
90.500, 0.266
90.600, 0.216
90.700, 0.225
90.800, 0.225
90.900, 0.247
91.000, 0.228
91.100, 0.209
91.200, 0.225
91.300, 0.227
91.400, 0.241
91.500, 0.221
91.600, 0.243
91.700, 0.232
91.800, 0.227
91.900, 0.278
92.000, 0.247
92.100, 0.235
92.200, 0.233
92.300, 0.258
92.400, 0.262
92.500, 0.244
92.600, 0.223
92.700, 0.224
92.800, 0.223
92.900, 0.197
93.000, 0.220
93.100, 0.194
93.200, 0.207
93.300, 0.187
93.400, 0.163
93.500, 0.190
93.600, 0.175
93.700, 0.179
93.800, 0.201
93.900, 0.206
94.000, 0.192
94.100, 0.209
94.200, 0.193
94.300, 0.178
94.400, 0.185
94.500, 0.207
94.600, 0.179
94.700, 0.175
94.800, 0.179
94.900, 0.164
95.000, 0.188
95.100, 0.192
95.200, 0.171
95.300, 0.169
95.400, 0.175
95.500, 0.180
95.600, 0.161
95.700, 0.166
95.800, 0.158
95.900, 0.180
96.000, 0.184
96.100, 0.200
96.200, 0.205
96.300, 0.184
96.400, 0.179
96.500, 0.185
96.600, 0.188
96.700, 0.165
96.800, 0.164
96.900, 0.201
97.000, 0.198
97.100, 0.186
97.200, 0.183
97.300, 0.180
97.400, 0.187
97.500, 0.189
97.600, 0.200
97.700, 0.213
97.800, 0.193
97.900, 0.184
98.000, 0.185
98.100, 0.172
98.200, 0.188
98.300, 0.182
98.400, 0.157
98.500, 0.159
98.600, 0.182
98.700, 0.167
98.800, 0.160
98.900, 0.162
99.000, 0.168
99.100, 0.185
99.200, 0.174
99.300, 0.165
99.400, 0.172
99.500, 0.172
99.600, 0.188
99.700, 0.175
99.800, 0.170
99.900, 0.165
100.000, 0.157
100.100, 0.154
100.200, 0.162
100.300, 0.171
100.400, 0.171
100.500, 0.168
100.600, 0.161
100.700, 0.162
100.800, 0.175
100.900, 0.168
101.000, 0.174
101.100, 0.181
101.200, 0.192
101.300, 0.181
101.400, 0.182
101.500, 0.195
101.600, 0.174
101.700, 0.158
101.800, 0.180
101.900, 0.166
102.000, 0.168
102.100, 0.184
102.200, 0.181
102.300, 0.165
102.400, 0.167
102.500, 0.174
102.600, 0.184
102.700, 0.180
102.800, 0.162
102.900, 0.163
103.000, 0.175
103.100, 0.179
103.200, 0.170
103.300, 0.188
103.400, 0.173
103.500, 0.172
103.600, 0.173
103.700, 0.165
103.800, 0.183
103.900, 0.171
104.000, 0.190
104.100, 0.169
104.200, 0.195
104.300, 0.184
104.400, 0.211
104.500, 0.192
104.600, 0.180
104.700, 0.192
104.800, 0.214
104.900, 0.193
105.000, 0.190
105.100, 0.179
105.200, 0.168
105.300, 0.181
105.400, 0.197
105.500, 0.206
105.600, 0.190
105.700, 0.193
105.800, 0.176
105.900, 0.182
106.000, 0.184
106.100, 0.180
106.200, 0.178
106.300, 0.182
106.400, 0.192
106.500, 0.187
106.600, 0.179
106.700, 0.186
106.800, 0.184
106.900, 0.208
107.000, 0.179
107.100, 0.197
107.200, 0.190
107.300, 0.212
107.400, 0.193
107.500, 0.225
107.600, 0.182
107.700, 0.199
107.800, 0.193
107.900, 0.188
108.000, 0.206
108.100, 0.200
108.200, 0.190
108.300, 0.190
108.400, 0.199
108.500, 0.202
108.600, 0.190
108.700, 0.174
108.800, 0.189
108.900, 0.181
109.000, 0.181
109.100, 0.170
109.200, 0.175
109.300, 0.175
109.400, 0.197
109.500, 0.168
109.600, 0.184
109.700, 0.179
109.800, 0.190
109.900, 0.172
110.000, 0.174
110.100, 0.179
110.200, 0.189
110.300, 0.171
110.400, 0.203
110.500, 0.160
110.600, 0.160
110.700, 0.184
110.800, 0.188
110.900, 0.165
111.000, 0.170
111.100, 0.169
111.200, 0.169
111.300, 0.161
111.400, 0.168
111.500, 0.180
111.600, 0.172
111.700, 0.182
111.800, 0.175
111.900, 0.165
112.000, 0.151
112.100, 0.174
112.200, 0.171
112.300, 0.187
112.400, 0.159
112.500, 0.216
112.600, 0.208
112.700, 0.226
112.800, 0.228
112.900, 0.233
113.000, 0.236
113.100, 0.231
113.200, 0.235
113.300, 0.224
113.400, 0.202
113.500, 0.207
113.600, 0.207
113.700, 0.203
113.800, 0.206
113.900, 0.207
114.000, 0.202
114.100, 0.214
114.200, 0.186
114.300, 0.194
114.400, 0.222
114.500, 0.242
114.600, 0.233
114.700, 0.227
114.800, 0.230
114.900, 0.243
115.000, 0.240
115.100, 0.236
115.200, 0.229
115.300, 0.217
115.400, 0.215
115.500, 0.227
115.600, 0.218
115.700, 0.215
115.800, 0.216
115.900, 0.222
116.000, 0.208
116.100, 0.217
116.200, 0.210
116.300, 0.244
116.400, 0.207
116.500, 0.240
116.600, 0.209
116.700, 0.218
116.800, 0.224
116.900, 0.216
117.000, 0.221
117.100, 0.208
117.200, 0.217
117.300, 0.194
117.400, 0.214
117.500, 0.195
117.600, 0.205
117.700, 0.206
117.800, 0.175
117.900, 0.186
118.000, 0.167
118.100, 0.176
118.200, 0.169
118.300, 0.185
118.400, 0.184
118.500, 0.190
118.600, 0.201
118.700, 0.207
118.800, 0.213
118.900, 0.188
119.000, 0.187
119.100, 0.189
119.200, 0.166
119.300, 0.170
119.400, 0.173
119.500, 0.166
119.600, 0.204
119.700, 0.186
119.800, 0.169
119.900, 0.176
120.000, 0.194
120.100, 0.174
120.200, 0.203
120.300, 0.211
120.400, 0.190
120.500, 0.184
120.600, 0.189
120.700, 0.182
120.800, 0.189
120.900, 0.183
121.000, 0.197
121.100, 0.176
121.200, 0.174
121.300, 0.152
121.400, 0.167
121.500, 0.168
121.600, 0.163
121.700, 0.176
121.800, 0.180
121.900, 0.159
122.000, 0.181
122.100, 0.176
122.200, 0.199
122.300, 0.188
122.400, 0.202
122.500, 0.192
122.600, 0.175
122.700, 0.188
122.800, 0.195
122.900, 0.195
123.000, 0.218
123.100, 0.199
123.200, 0.238
123.300, 0.221
123.400, 0.223
123.500, 0.217
123.600, 0.221
123.700, 0.214
123.800, 0.202
123.900, 0.212
124.000, 0.229
124.100, 0.206
124.200, 0.205
124.300, 0.209
124.400, 0.210
124.500, 0.193
124.600, 0.171
124.700, 0.160
124.800, 0.195
124.900, 0.207
125.000, 0.190
125.100, 0.202
125.200, 0.180
125.300, 0.188
125.400, 0.192
125.500, 0.192
125.600, 0.176
125.700, 0.183
125.800, 0.192
125.900, 0.191
126.000, 0.183
126.100, 0.188
126.200, 0.184
126.300, 0.181
126.400, 0.178
126.500, 0.190
126.600, 0.226
126.700, 0.217
126.800, 0.192
126.900, 0.196
127.000, 0.206
127.100, 0.224
127.200, 0.214
127.300, 0.197
127.400, 0.200
127.500, 0.217
127.600, 0.189
127.700, 0.189
127.800, 0.184
127.900, 0.196
128.000, 0.195
128.100, 0.188
128.200, 0.195
128.300, 0.195
128.400, 0.227
128.500, 0.211
128.600, 0.186
128.700, 0.190
128.800, 0.182
128.900, 0.199
129.000, 0.204
129.100, 0.191
129.200, 0.175
129.300, 0.176
129.400, 0.190
129.500, 0.186
129.600, 0.177
129.700, 0.185
129.800, 0.178
129.900, 0.193
130.000, 0.173
130.100, 0.180
130.200, 0.185
130.300, 0.187
130.400, 0.185
130.500, 0.179
130.600, 0.187
130.700, 0.192
130.800, 0.175
130.900, 0.180
131.000, 0.186
131.100, 0.215
131.200, 0.180
131.300, 0.201
131.400, 0.207
131.500, 0.210
131.600, 0.194
131.700, 0.198
131.800, 0.183
131.900, 0.191
132.000, 0.214
132.100, 0.197
132.200, 0.212
132.300, 0.188
132.400, 0.185
132.500, 0.214
132.600, 0.189
132.700, 0.213
132.800, 0.195
132.900, 0.191
133.000, 0.180
133.100, 0.184
133.200, 0.204
133.300, 0.192
133.400, 0.198
133.500, 0.203
133.600, 0.210
133.700, 0.205
133.800, 0.185
133.900, 0.184
134.000, 0.177
134.100, 0.175
134.200, 0.185
134.300, 0.161
134.400, 0.164
134.500, 0.188
134.600, 0.178
134.700, 0.203
134.800, 0.214
134.900, 0.211
135.000, 0.196
135.100, 0.233
135.200, 0.226
135.300, 0.223
135.400, 0.205
135.500, 0.190
135.600, 0.176
135.700, 0.188
135.800, 0.207
135.900, 0.198
136.000, 0.216
136.100, 0.197
136.200, 0.177
136.300, 0.160
136.400, 0.195
136.500, 0.174
136.600, 0.197
136.700, 0.192
136.800, 0.186
136.900, 0.183
137.000, 0.196
137.100, 0.169
137.200, 0.180
137.300, 0.190
137.400, 0.204
137.500, 0.197
137.600, 0.217
137.700, 0.202
137.800, 0.209
137.900, 0.214
138.000, 0.205
138.100, 0.237
138.200, 0.247
138.300, 0.216
138.400, 0.210
138.500, 0.217
138.600, 0.203
138.700, 0.208
138.800, 0.217
138.900, 0.206
139.000, 0.202
139.100, 0.212
139.200, 0.211
139.300, 0.193
139.400, 0.206
139.500, 0.199
139.600, 0.220
139.700, 0.237
139.800, 0.218
139.900, 0.218
140.000, 0.238
140.100, 0.215
140.200, 0.222
140.300, 0.224
140.400, 0.223
140.500, 0.218
140.600, 0.211
140.700, 0.216
140.800, 0.227
140.900, 0.208
141.000, 0.238
141.100, 0.217
141.200, 0.222
141.300, 0.216
141.400, 0.196
141.500, 0.189
141.600, 0.204
141.700, 0.198
141.800, 0.208
141.900, 0.203
142.000, 0.202
142.100, 0.211
142.200, 0.210
142.300, 0.186
142.400, 0.232
142.500, 0.217
142.600, 0.212
142.700, 0.224
142.800, 0.222
142.900, 0.207
143.000, 0.216
143.100, 0.195
143.200, 0.243
143.300, 0.236
143.400, 0.230
143.500, 0.215
143.600, 0.216
143.700, 0.233
143.800, 0.207
143.900, 0.208
144.000, 0.203
144.100, 0.209
144.200, 0.197
144.300, 0.206
144.400, 0.232
144.500, 0.203
144.600, 0.202
144.700, 0.212
144.800, 0.215
144.900, 0.238
145.000, 0.230
145.100, 0.228
145.200, 0.187
145.300, 0.204
145.400, 0.208
145.500, 0.219
145.600, 0.202
145.700, 0.198
145.800, 0.205
145.900, 0.189
146.000, 0.198
146.100, 0.208
146.200, 0.198
146.300, 0.192
146.400, 0.195
146.500, 0.214
146.600, 0.191
146.700, 0.204
146.800, 0.194
146.900, 0.240
147.000, 0.209
147.100, 0.203
147.200, 0.207
147.300, 0.193
147.400, 0.212
147.500, 0.203
147.600, 0.208
147.700, 0.175
147.800, 0.226
147.900, 0.212
148.000, 0.230
148.100, 0.231
148.200, 0.211
148.300, 0.213
148.400, 0.206
148.500, 0.188
148.600, 0.190
148.700, 0.183
148.800, 0.178
148.900, 0.179
149.000, 0.188
149.100, 0.191
149.200, 0.194
149.300, 0.184
149.400, 0.179
149.500, 0.201
149.600, 0.196
149.700, 0.201
149.800, 0.183
149.900, 0.213
150.000, 0.236
150.100, 0.217
150.200, 0.198
150.300, 0.204
150.400, 0.207
150.500, 0.187
150.600, 0.183
150.700, 0.204
150.800, 0.210
150.900, 0.198
151.000, 0.215
151.100, 0.208
151.200, 0.214
151.300, 0.250
151.400, 0.206
151.500, 0.254
151.600, 0.242
151.700, 0.225
151.800, 0.251
151.900, 0.216
152.000, 0.233
152.100, 0.224
152.200, 0.236
152.300, 0.233
152.400, 0.229
152.500, 0.240
152.600, 0.245
152.700, 0.222
152.800, 0.240
152.900, 0.238
153.000, 0.198
153.100, 0.241
153.200, 0.210
153.300, 0.224
153.400, 0.231
153.500, 0.223
153.600, 0.228
153.700, 0.222
153.800, 0.206
153.900, 0.209
154.000, 0.204
154.100, 0.175
154.200, 0.187
154.300, 0.208
154.400, 0.210
154.500, 0.191
154.600, 0.189
154.700, 0.196
154.800, 0.186
154.900, 0.193
155.000, 0.198
155.100, 0.243
155.200, 0.218
155.300, 0.207
155.400, 0.205
155.500, 0.228
155.600, 0.236
155.700, 0.214
155.800, 0.229
155.900, 0.229
156.000, 0.221
156.100, 0.219
156.200, 0.223
156.300, 0.218
156.400, 0.207
156.500, 0.230
156.600, 0.242
156.700, 0.205
156.800, 0.212
156.900, 0.206
157.000, 0.203
157.100, 0.214
157.200, 0.246
157.300, 0.221
157.400, 0.209
157.500, 0.194
157.600, 0.206
157.700, 0.231
157.800, 0.213
157.900, 0.239
158.000, 0.216
158.100, 0.220
158.200, 0.216
158.300, 0.218
158.400, 0.223
158.500, 0.212
158.600, 0.209
158.700, 0.200
158.800, 0.218
158.900, 0.210
159.000, 0.195
159.100, 0.201
159.200, 0.199
159.300, 0.195
159.400, 0.214
159.500, 0.185
159.600, 0.190
159.700, 0.185
159.800, 0.179
159.900, 0.178
160.000, 0.187
160.100, 0.170
160.200, 0.187
160.300, 0.198
160.400, 0.204
160.500, 0.186
160.600, 0.207
160.700, 0.209
160.800, 0.189
160.900, 0.237
161.000, 0.247
161.100, 0.231
161.200, 0.224
161.300, 0.218
161.400, 0.204
161.500, 0.194
161.600, 0.200
161.700, 0.198
161.800, 0.195
161.900, 0.201
162.000, 0.208
162.100, 0.203
162.200, 0.211
162.300, 0.202
162.400, 0.212
162.500, 0.225
162.600, 0.196
162.700, 0.227
162.800, 0.199
162.900, 0.233
163.000, 0.252
163.100, 0.250
163.200, 0.254
163.300, 0.240
163.400, 0.217
163.500, 0.211
163.600, 0.202
163.700, 0.234
163.800, 0.218
163.900, 0.224
164.000, 0.208
164.100, 0.216
164.200, 0.239
164.300, 0.218
164.400, 0.254
164.500, 0.235
164.600, 0.241
164.700, 0.244
164.800, 0.213
164.900, 0.206
165.000, 0.206
165.100, 0.229
165.200, 0.218
165.300, 0.213
165.400, 0.225
165.500, 0.232
165.600, 0.245
165.700, 0.247
165.800, 0.218
165.900, 0.209
166.000, 0.220
166.100, 0.208
166.200, 0.208
166.300, 0.235
166.400, 0.228
166.500, 0.237
166.600, 0.258
166.700, 0.252
166.800, 0.251
166.900, 0.236
167.000, 0.245
167.100, 0.245
167.200, 0.240
167.300, 0.210
167.400, 0.190
167.500, 0.233
167.600, 0.219
167.700, 0.169
167.800, 0.176
167.900, 0.194
168.000, 0.208
168.100, 0.215
168.200, 0.227
168.300, 0.233
168.400, 0.237
168.500, 0.226
168.600, 0.217
168.700, 0.217
168.800, 0.221
168.900, 0.224
169.000, 0.226
169.100, 0.252
169.200, 0.230
169.300, 0.253
169.400, 0.248
169.500, 0.246
169.600, 0.269
169.700, 0.240
169.800, 0.232
169.900, 0.229
170.000, 0.219
170.100, 0.226
170.200, 0.199
170.300, 0.245
170.400, 0.215
170.500, 0.212
170.600, 0.214
170.700, 0.227
170.800, 0.243
170.900, 0.248
171.000, 0.225
171.100, 0.221
171.200, 0.220
171.300, 0.248
171.400, 0.244
171.500, 0.235
171.600, 0.247
171.700, 0.231
171.800, 0.246
171.900, 0.224
172.000, 0.254
172.100, 0.252
172.200, 0.252
172.300, 0.268
172.400, 0.289
172.500, 0.264
172.600, 0.244
172.700, 0.242
172.800, 0.239
172.900, 0.254
173.000, 0.211
173.100, 0.242
173.200, 0.241
173.300, 0.274
173.400, 0.264
173.500, 0.276
173.600, 0.280
173.700, 0.239
173.800, 0.254
173.900, 0.233
174.000, 0.250
174.100, 0.227
174.200, 0.254
174.300, 0.246
174.400, 0.260
174.500, 0.228
174.600, 0.244
174.700, 0.214
174.800, 0.237
174.900, 0.239
175.000, 0.253
175.100, 0.260
175.200, 0.205
175.300, 0.199
175.400, 0.197
175.500, 0.195
175.600, 0.198
175.700, 0.195
175.800, 0.202
175.900, 0.183
176.000, 0.198
176.100, 0.210
176.200, 0.216
176.300, 0.204
176.400, 0.198
176.500, 0.243
176.600, 0.228
176.700, 0.227
176.800, 0.210
176.900, 0.217
177.000, 0.239
177.100, 0.229
177.200, 0.241
177.300, 0.208
177.400, 0.197
177.500, 0.176
177.600, 0.181
177.700, 0.227
177.800, 0.223
177.900, 0.195
178.000, 0.206
178.100, 0.203
178.200, 0.192
178.300, 0.185
178.400, 0.181
178.500, 0.214
178.600, 0.232
178.700, 0.224
178.800, 0.206
178.900, 0.180
179.000, 0.175
179.100, 0.194
179.200, 0.231
179.300, 0.214
179.400, 0.220
179.500, 0.225
179.600, 0.253
179.700, 0.265
179.800, 0.236
179.900, 0.247
180.000, 0.217
180.100, 0.204
180.200, 0.203
180.300, 0.203
180.400, 0.240
180.500, 0.240
180.600, 0.223
180.700, 0.263
180.800, 0.233
180.900, 0.215
181.000, 0.217
181.100, 0.223
181.200, 0.247
181.300, 0.238
181.400, 0.231
181.500, 0.256
181.600, 0.232
181.700, 0.222
181.800, 0.248
181.900, 0.228
182.000, 0.215
182.100, 0.234
182.200, 0.248
182.300, 0.213
182.400, 0.221
182.500, 0.211
182.600, 0.197
182.700, 0.192
182.800, 0.182
182.900, 0.203
183.000, 0.194
183.100, 0.223
183.200, 0.219
183.300, 0.206
183.400, 0.211
183.500, 0.225
183.600, 0.207
183.700, 0.212
183.800, 0.215
183.900, 0.208
184.000, 0.222
184.100, 0.206
184.200, 0.205
184.300, 0.203
184.400, 0.218
184.500, 0.239
184.600, 0.254
184.700, 0.231
184.800, 0.196
184.900, 0.218
185.000, 0.229
185.100, 0.238
185.200, 0.226
185.300, 0.224
185.400, 0.204
185.500, 0.205
185.600, 0.200
185.700, 0.226
185.800, 0.221
185.900, 0.222
186.000, 0.239
186.100, 0.225
186.200, 0.226
186.300, 0.228
186.400, 0.235
186.500, 0.222
186.600, 0.204
186.700, 0.225
186.800, 0.267
186.900, 0.241
187.000, 0.220
187.100, 0.215
187.200, 0.232
187.300, 0.212
187.400, 0.216
187.500, 0.236
187.600, 0.253
187.700, 0.247
187.800, 0.225
187.900, 0.237
188.000, 0.239
188.100, 0.230
188.200, 0.220
188.300, 0.263
188.400, 0.232
188.500, 0.246
188.600, 0.217
188.700, 0.215
188.800, 0.222
188.900, 0.225
189.000, 0.227
189.100, 0.228
189.200, 0.216
189.300, 0.211
189.400, 0.219
189.500, 0.203
189.600, 0.216
189.700, 0.224
189.800, 0.215
189.900, 0.208
190.000, 0.223
190.100, 0.205
190.200, 0.191
190.300, 0.191
190.400, 0.190
190.500, 0.187
190.600, 0.195
190.700, 0.221
190.800, 0.233
190.900, 0.224
191.000, 0.222
191.100, 0.225
191.200, 0.225
191.300, 0.252
191.400, 0.245
191.500, 0.239
191.600, 0.250
191.700, 0.214
191.800, 0.237
191.900, 0.230
192.000, 0.255
192.100, 0.249
192.200, 0.232
192.300, 0.229
192.400, 0.241
192.500, 0.289
192.600, 0.256
192.700, 0.247
192.800, 0.221
192.900, 0.232
193.000, 0.222
193.100, 0.194
193.200, 0.204
193.300, 0.226
193.400, 0.229
193.500, 0.231
193.600, 0.218
193.700, 0.229
193.800, 0.208
193.900, 0.237
194.000, 0.230
194.100, 0.238
194.200, 0.238
194.300, 0.220
194.400, 0.224
194.500, 0.218
194.600, 0.229
194.700, 0.209
194.800, 0.193
194.900, 0.234
195.000, 0.218
195.100, 0.257
195.200, 0.224
195.300, 0.244
195.400, 0.216
195.500, 0.200
195.600, 0.210
195.700, 0.233
195.800, 0.217
195.900, 0.211
196.000, 0.200
196.100, 0.224
196.200, 0.223
196.300, 0.230
196.400, 0.228
196.500, 0.202
196.600, 0.190
196.700, 0.178
196.800, 0.187
196.900, 0.184
197.000, 0.195
197.100, 0.182
197.200, 0.196
197.300, 0.185
197.400, 0.189
197.500, 0.193
197.600, 0.196
197.700, 0.161
197.800, 0.186
197.900, 0.183
198.000, 0.174
198.100, 0.189
198.200, 0.178
198.300, 0.171
198.400, 0.178
198.500, 0.195
198.600, 0.180
198.700, 0.178
198.800, 0.181
198.900, 0.189
199.000, 0.198
199.100, 0.190
199.200, 0.181
199.300, 0.183
199.400, 0.199
199.500, 0.203
199.600, 0.180
199.700, 0.174
199.800, 0.177
199.900, 0.178
200.000, 0.181
200.100, 0.190
200.200, 0.186
200.300, 0.192
200.400, 0.196
200.500, 0.192
200.600, 0.194
200.700, 0.193
200.800, 0.194
200.900, 0.192
201.000, 0.187
201.100, 0.182
201.200, 0.188
201.300, 0.177
201.400, 0.187
201.500, 0.176
201.600, 0.178
201.700, 0.178
201.800, 0.174
201.900, 0.180
202.000, 0.170
202.100, 0.170
202.200, 0.170
202.300, 0.178
202.400, 0.198
202.500, 0.197
202.600, 0.179
202.700, 0.189
202.800, 0.194
202.900, 0.183
203.000, 0.199
203.100, 0.212
203.200, 0.196
203.300, 0.211
203.400, 0.202
203.500, 0.203
203.600, 0.198
203.700, 0.204
203.800, 0.201
203.900, 0.211
204.000, 0.212
204.100, 0.202
204.200, 0.190
204.300, 0.206
204.400, 0.210
204.500, 0.226
204.600, 0.221
204.700, 0.234
204.800, 0.212
204.900, 0.196
205.000, 0.204
205.100, 0.211
205.200, 0.217
205.300, 0.200
205.400, 0.187
205.500, 0.188
205.600, 0.174
205.700, 0.177
205.800, 0.198
205.900, 0.194
206.000, 0.184
206.100, 0.203
206.200, 0.191
206.300, 0.169
206.400, 0.174
206.500, 0.186
206.600, 0.169
206.700, 0.175
206.800, 0.182
206.900, 0.194
207.000, 0.185
207.100, 0.203
207.200, 0.180
207.300, 0.189
207.400, 0.172
207.500, 0.165
207.600, 0.183
207.700, 0.186
207.800, 0.187
207.900, 0.181
208.000, 0.183
208.100, 0.180
208.200, 0.182
208.300, 0.169
208.400, 0.164
208.500, 0.191
208.600, 0.194
208.700, 0.173
208.800, 0.167
208.900, 0.186
209.000, 0.190
209.100, 0.171
209.200, 0.203
209.300, 0.190
209.400, 0.191
209.500, 0.179
209.600, 0.184
209.700, 0.203
209.800, 0.198
209.900, 0.202
210.000, 0.191
210.100, 0.192
210.200, 0.191
210.300, 0.185
210.400, 0.184
210.500, 0.178
210.600, 0.180
210.700, 0.164
210.800, 0.161
210.900, 0.164
211.000, 0.185
211.100, 0.185
211.200, 0.169
211.300, 0.195
211.400, 0.171
211.500, 0.193
211.600, 0.172
211.700, 0.172
211.800, 0.195
211.900, 0.171
212.000, 0.173
212.100, 0.177
212.200, 0.183
212.300, 0.170
212.400, 0.162
212.500, 0.175
212.600, 0.182
212.700, 0.168
212.800, 0.175
212.900, 0.180
213.000, 0.197
213.100, 0.178
213.200, 0.191
213.300, 0.181
213.400, 0.171
213.500, 0.183
213.600, 0.192
213.700, 0.212
213.800, 0.221
213.900, 0.192
214.000, 0.202
214.100, 0.201
214.200, 0.185
214.300, 0.193
214.400, 0.180
214.500, 0.199
214.600, 0.182
214.700, 0.201
214.800, 0.189
214.900, 0.213
215.000, 0.190
215.100, 0.196
215.200, 0.185
215.300, 0.200
215.400, 0.212
215.500, 0.193
215.600, 0.210
215.700, 0.188
215.800, 0.196
215.900, 0.203
216.000, 0.200
216.100, 0.186
216.200, 0.203
216.300, 0.200
216.400, 0.196
216.500, 0.203
216.600, 0.193
216.700, 0.188
216.800, 0.191
216.900, 0.186
217.000, 0.216
217.100, 0.198
217.200, 0.188
217.300, 0.192
217.400, 0.182
217.500, 0.187
217.600, 0.193
217.700, 0.191
217.800, 0.198
217.900, 0.189
218.000, 0.181
218.100, 0.188
218.200, 0.196
218.300, 0.200
218.400, 0.196
218.500, 0.191
218.600, 0.195
218.700, 0.203
218.800, 0.180
218.900, 0.200
219.000, 0.193
219.100, 0.203
219.200, 0.189
219.300, 0.199
219.400, 0.190
219.500, 0.194
219.600, 0.215
219.700, 0.190
219.800, 0.173
219.900, 0.184
220.000, 0.188
220.100, 0.180
220.200, 0.182
220.300, 0.189
220.400, 0.190
220.500, 0.186
220.600, 0.198
220.700, 0.188
220.800, 0.199
220.900, 0.199
221.000, 0.215
221.100, 0.196
221.200, 0.206
221.300, 0.191
221.400, 0.230
221.500, 0.199
221.600, 0.209
221.700, 0.193
221.800, 0.202
221.900, 0.196
222.000, 0.187
222.100, 0.191
222.200, 0.211
222.300, 0.215
222.400, 0.212
222.500, 0.197
222.600, 0.181
222.700, 0.186
222.800, 0.206
222.900, 0.199
223.000, 0.209
223.100, 0.209
223.200, 0.205
223.300, 0.205
223.400, 0.219
223.500, 0.200
223.600, 0.212
223.700, 0.218
223.800, 0.211
223.900, 0.247
224.000, 0.209
224.100, 0.199
224.200, 0.209
224.300, 0.215
224.400, 0.222
224.500, 0.209
224.600, 0.225
224.700, 0.223
224.800, 0.242
224.900, 0.228
225.000, 0.221
225.100, 0.221
225.200, 0.214
225.300, 0.200
225.400, 0.229
225.500, 0.199
225.600, 0.203
225.700, 0.226
225.800, 0.231
225.900, 0.213
226.000, 0.210
226.100, 0.228
226.200, 0.250
226.300, 0.226
226.400, 0.220
226.500, 0.199
226.600, 0.206
226.700, 0.218
226.800, 0.202
226.900, 0.200
227.000, 0.180
227.100, 0.195
227.200, 0.185
227.300, 0.185
227.400, 0.187
227.500, 0.178
227.600, 0.170
227.700, 0.192
227.800, 0.190
227.900, 0.193
228.000, 0.208
228.100, 0.191
228.200, 0.201
228.300, 0.209
228.400, 0.208
228.500, 0.207
228.600, 0.217
228.700, 0.209
228.800, 0.206
228.900, 0.203
229.000, 0.185
229.100, 0.188
229.200, 0.200
229.300, 0.204
229.400, 0.206
229.500, 0.212
229.600, 0.216
229.700, 0.209
229.800, 0.202
229.900, 0.210
230.000, 0.200
230.100, 0.214
230.200, 0.241
230.300, 0.232
230.400, 0.206
230.500, 0.205
230.600, 0.231
230.700, 0.214
230.800, 0.219
230.900, 0.229
231.000, 0.235
231.100, 0.220
231.200, 0.237
231.300, 0.231
231.400, 0.239
231.500, 0.227
231.600, 0.235
231.700, 0.228
231.800, 0.232
231.900, 0.236
232.000, 0.224
232.100, 0.233
232.200, 0.231
232.300, 0.250
232.400, 0.236
232.500, 0.250
232.600, 0.247
232.700, 0.231
232.800, 0.227
232.900, 0.235
233.000, 0.238
233.100, 0.261
233.200, 0.253
233.300, 0.252
233.400, 0.229
233.500, 0.231
233.600, 0.233
233.700, 0.235
233.800, 0.254
233.900, 0.234
234.000, 0.222
234.100, 0.227
234.200, 0.216
234.300, 0.207
234.400, 0.217
234.500, 0.222
234.600, 0.234
234.700, 0.253
234.800, 0.234
234.900, 0.211
235.000, 0.224
235.100, 0.234
235.200, 0.238
235.300, 0.230
235.400, 0.242
235.500, 0.214
235.600, 0.202
235.700, 0.220
235.800, 0.218
235.900, 0.229
236.000, 0.246
236.100, 0.219
236.200, 0.205
236.300, 0.214
236.400, 0.212
236.500, 0.227
236.600, 0.234
236.700, 0.223
236.800, 0.240
236.900, 0.242
237.000, 0.261
237.100, 0.242
237.200, 0.258
237.300, 0.220
237.400, 0.218
237.500, 0.213
237.600, 0.216
237.700, 0.204
237.800, 0.205
237.900, 0.210
238.000, 0.212
238.100, 0.208
238.200, 0.213
238.300, 0.208
238.400, 0.215
238.500, 0.212
238.600, 0.200
238.700, 0.193
238.800, 0.211
238.900, 0.204
239.000, 0.209
239.100, 0.218
239.200, 0.226
239.300, 0.229
239.400, 0.218
239.500, 0.236
239.600, 0.249
239.700, 0.224
239.800, 0.246
239.900, 0.245
240.000, 0.235
240.100, 0.247
240.200, 0.243
240.300, 0.268
240.400, 0.262
240.500, 0.263
240.600, 0.273
240.700, 0.291
240.800, 0.273
240.900, 0.253
241.000, 0.241
241.100, 0.248
241.200, 0.239
241.300, 0.252
241.400, 0.238
241.500, 0.222
241.600, 0.228
241.700, 0.231
241.800, 0.236
241.900, 0.227
242.000, 0.205
242.100, 0.209
242.200, 0.223
242.300, 0.223
242.400, 0.211
242.500, 0.267
242.600, 0.246
242.700, 0.242
242.800, 0.284
242.900, 0.262
243.000, 0.247
243.100, 0.240
243.200, 0.256
243.300, 0.261
243.400, 0.260
243.500, 0.215
243.600, 0.218
243.700, 0.241
243.800, 0.249
243.900, 0.220
244.000, 0.227
244.100, 0.244
244.200, 0.240
244.300, 0.225
244.400, 0.252
244.500, 0.235
244.600, 0.242
244.700, 0.236
244.800, 0.217
244.900, 0.237
245.000, 0.235
245.100, 0.219
245.200, 0.228
245.300, 0.231
245.400, 0.231
245.500, 0.243
245.600, 0.196
245.700, 0.188
245.800, 0.171
245.900, 0.189
246.000, 0.183
246.100, 0.189
246.200, 0.197
246.300, 0.170
246.400, 0.161
246.500, 0.193
246.600, 0.199
246.700, 0.197
246.800, 0.170
246.900, 0.197
247.000, 0.171
247.100, 0.188
247.200, 0.205
247.300, 0.182
247.400, 0.178
247.500, 0.186
247.600, 0.174
247.700, 0.193
247.800, 0.183
247.900, 0.190
248.000, 0.177
248.100, 0.184
248.200, 0.180
248.300, 0.187
248.400, 0.175
248.500, 0.174
248.600, 0.166
248.700, 0.168
248.800, 0.179
248.900, 0.192
249.000, 0.164
249.100, 0.161
249.200, 0.154
249.300, 0.162
249.400, 0.171
249.500, 0.157
249.600, 0.189
249.700, 0.175
249.800, 0.173
249.900, 0.181
250.000, 0.173
250.100, 0.175
250.200, 0.166
250.300, 0.164
250.400, 0.167
250.500, 0.162
250.600, 0.172
250.700, 0.168
250.800, 0.182
250.900, 0.180
251.000, 0.190
251.100, 0.191
251.200, 0.171
251.300, 0.164
251.400, 0.173
251.500, 0.171
251.600, 0.187
251.700, 0.177
251.800, 0.203
251.900, 0.201
252.000, 0.192
252.100, 0.192
252.200, 0.181
252.300, 0.164
252.400, 0.193
252.500, 0.207
252.600, 0.185
252.700, 0.204
252.800, 0.206
252.900, 0.209
253.000, 0.240
253.100, 0.197
253.200, 0.190
253.300, 0.186
253.400, 0.190
253.500, 0.174
253.600, 0.210
253.700, 0.193
253.800, 0.192
253.900, 0.197
254.000, 0.202
254.100, 0.188
254.200, 0.208
254.300, 0.225
254.400, 0.221
254.500, 0.212
254.600, 0.208
254.700, 0.196
254.800, 0.204
254.900, 0.195
255.000, 0.182
255.100, 0.198
255.200, 0.198
255.300, 0.203
255.400, 0.199
255.500, 0.180
255.600, 0.198
255.700, 0.202
255.800, 0.182
255.900, 0.198
256.000, 0.180
256.100, 0.199
256.200, 0.178
256.300, 0.178
256.400, 0.183
256.500, 0.175
256.600, 0.168
256.700, 0.181
256.800, 0.170
256.900, 0.181
257.000, 0.192
257.100, 0.178
257.200, 0.186
257.300, 0.180
257.400, 0.172
257.500, 0.188
257.600, 0.190
257.700, 0.214
257.800, 0.217
257.900, 0.204
258.000, 0.210
258.100, 0.190
258.200, 0.210
258.300, 0.201
258.400, 0.185
258.500, 0.187
258.600, 0.190
258.700, 0.179
258.800, 0.188
258.900, 0.208
259.000, 0.212
259.100, 0.188
259.200, 0.185
259.300, 0.179
259.400, 0.185
259.500, 0.216
259.600, 0.185
259.700, 0.181
259.800, 0.218
259.900, 0.213
260.000, 0.226
260.100, 0.237
260.200, 0.210
260.300, 0.217
260.400, 0.214
260.500, 0.204
260.600, 0.221
260.700, 0.232
260.800, 0.203
260.900, 0.219
261.000, 0.230
261.100, 0.222
261.200, 0.222
261.300, 0.243
261.400, 0.207
261.500, 0.219
261.600, 0.216
261.700, 0.233
261.800, 0.203
261.900, 0.219
262.000, 0.208
262.100, 0.170
262.200, 0.180
262.300, 0.170
262.400, 0.180
262.500, 0.198
262.600, 0.207
262.700, 0.212
262.800, 0.228
262.900, 0.246
263.000, 0.260
263.100, 0.232
263.200, 0.239
263.300, 0.216
263.400, 0.221
263.500, 0.188
263.600, 0.206
263.700, 0.218
263.800, 0.201
263.900, 0.191
264.000, 0.215
264.100, 0.199
264.200, 0.180
264.300, 0.183
264.400, 0.175
264.500, 0.173
264.600, 0.167
264.700, 0.165
264.800, 0.176
264.900, 0.183
265.000, 0.187
265.100, 0.188
265.200, 0.181
265.300, 0.189
265.400, 0.179
265.500, 0.172
265.600, 0.197
265.700, 0.203
265.800, 0.228
265.900, 0.212
266.000, 0.231
266.100, 0.223
266.200, 0.251
266.300, 0.241
266.400, 0.215
266.500, 0.205
266.600, 0.201
266.700, 0.205
266.800, 0.216
266.900, 0.209
267.000, 0.217
267.100, 0.229
267.200, 0.211
267.300, 0.193
267.400, 0.182
267.500, 0.184
267.600, 0.206
267.700, 0.178
267.800, 0.197
267.900, 0.201
268.000, 0.175
268.100, 0.194
268.200, 0.199
268.300, 0.200
268.400, 0.203
268.500, 0.197
268.600, 0.188
268.700, 0.186
268.800, 0.199
268.900, 0.191
269.000, 0.194
269.100, 0.184
269.200, 0.194
269.300, 0.213
269.400, 0.191
269.500, 0.185
269.600, 0.166
269.700, 0.187
269.800, 0.180
269.900, 0.200
270.000, 0.196
270.100, 0.194
270.200, 0.175
270.300, 0.186
270.400, 0.197
270.500, 0.195
270.600, 0.185
270.700, 0.212
270.800, 0.208
270.900, 0.184
271.000, 0.181
271.100, 0.190
271.200, 0.192
271.300, 0.200
271.400, 0.180
271.500, 0.198
271.600, 0.193
271.700, 0.192
271.800, 0.157
271.900, 0.182
272.000, 0.178
272.100, 0.202
272.200, 0.193
272.300, 0.190
272.400, 0.187
272.500, 0.196
272.600, 0.183
272.700, 0.180
272.800, 0.171
272.900, 0.200
273.000, 0.189
273.100, 0.189
273.200, 0.181
273.300, 0.177
273.400, 0.177
273.500, 0.180
273.600, 0.183
273.700, 0.202
273.800, 0.183
273.900, 0.194
274.000, 0.197
274.100, 0.192
274.200, 0.184
274.300, 0.197
274.400, 0.205
274.500, 0.221
274.600, 0.227
274.700, 0.220
274.800, 0.258
274.900, 0.268
275.000, 0.284
275.100, 0.257
275.200, 0.270
275.300, 0.264
275.400, 0.231
275.500, 0.225
275.600, 0.220
275.700, 0.218
275.800, 0.226
275.900, 0.206
276.000, 0.209
276.100, 0.209
276.200, 0.207
276.300, 0.214
276.400, 0.201
276.500, 0.195
276.600, 0.196
276.700, 0.208
276.800, 0.211
276.900, 0.194
277.000, 0.207
277.100, 0.203
277.200, 0.201
277.300, 0.203
277.400, 0.194
277.500, 0.202
277.600, 0.206
277.700, 0.192
277.800, 0.203
277.900, 0.181
278.000, 0.195
278.100, 0.188
278.200, 0.183
278.300, 0.187
278.400, 0.190
278.500, 0.173
278.600, 0.191
278.700, 0.213
278.800, 0.217
278.900, 0.231
279.000, 0.213
279.100, 0.182
279.200, 0.192
279.300, 0.181
279.400, 0.171
279.500, 0.159
279.600, 0.185
279.700, 0.188
279.800, 0.176
279.900, 0.175
280.000, 0.156
280.100, 0.165
280.200, 0.171
280.300, 0.177
280.400, 0.184
280.500, 0.171
280.600, 0.182
280.700, 0.203
280.800, 0.190
280.900, 0.160
281.000, 0.164
281.100, 0.159
281.200, 0.169
281.300, 0.154
281.400, 0.177
281.500, 0.177
281.600, 0.177
281.700, 0.195
281.800, 0.170
281.900, 0.183
282.000, 0.182
282.100, 0.179
282.200, 0.194
282.300, 0.184
282.400, 0.215
282.500, 0.175
282.600, 0.200
282.700, 0.192
282.800, 0.173
282.900, 0.196
283.000, 0.185
283.100, 0.181
283.200, 0.174
283.300, 0.178
283.400, 0.182
283.500, 0.186
283.600, 0.182
283.700, 0.177
283.800, 0.169
283.900, 0.181
284.000, 0.176
284.100, 0.173
284.200, 0.183
284.300, 0.151
284.400, 0.174
284.500, 0.174
284.600, 0.190
284.700, 0.189
284.800, 0.186
284.900, 0.158
285.000, 0.170
285.100, 0.170
285.200, 0.170
285.300, 0.172
285.400, 0.164
285.500, 0.172
285.600, 0.189
285.700, 0.211
285.800, 0.175
285.900, 0.179
286.000, 0.198
286.100, 0.203
286.200, 0.184
286.300, 0.182
286.400, 0.199
286.500, 0.200
286.600, 0.173
286.700, 0.182
286.800, 0.176
286.900, 0.183
287.000, 0.177
287.100, 0.179
287.200, 0.184
287.300, 0.178
287.400, 0.185
287.500, 0.173
287.600, 0.183
287.700, 0.180
287.800, 0.196
287.900, 0.181
288.000, 0.160
288.100, 0.180
288.200, 0.175
288.300, 0.204
288.400, 0.175
288.500, 0.182
288.600, 0.169
288.700, 0.182
288.800, 0.203
288.900, 0.174
289.000, 0.186
289.100, 0.177
289.200, 0.175
289.300, 0.173
289.400, 0.186
289.500, 0.194
289.600, 0.195
289.700, 0.178
289.800, 0.173
289.900, 0.183
290.000, 0.177
290.100, 0.178
290.200, 0.187
290.300, 0.179
290.400, 0.192
290.500, 0.169
290.600, 0.180
290.700, 0.189
290.800, 0.172
290.900, 0.202
291.000, 0.198
291.100, 0.170
291.200, 0.164
291.300, 0.179
291.400, 0.184
291.500, 0.172
291.600, 0.180
291.700, 0.177
291.800, 0.207
291.900, 0.188
292.000, 0.188
292.100, 0.171
292.200, 0.188
292.300, 0.168
292.400, 0.186
292.500, 0.206
292.600, 0.194
292.700, 0.198
292.800, 0.209
292.900, 0.200
293.000, 0.187
293.100, 0.184
293.200, 0.192
293.300, 0.205
293.400, 0.193
293.500, 0.183
293.600, 0.161
293.700, 0.193
293.800, 0.184
293.900, 0.201
294.000, 0.186
294.100, 0.197
294.200, 0.179
294.300, 0.188
294.400, 0.174
294.500, 0.179
294.600, 0.167
294.700, 0.174
294.800, 0.188
294.900, 0.199
295.000, 0.205
295.100, 0.185
295.200, 0.188
295.300, 0.173
295.400, 0.173
295.500, 0.160
295.600, 0.158
295.700, 0.169
295.800, 0.153
295.900, 0.157
296.000, 0.172
296.100, 0.166
296.200, 0.190
296.300, 0.185
296.400, 0.171
296.500, 0.175
296.600, 0.180
296.700, 0.167
296.800, 0.189
296.900, 0.174
297.000, 0.182
297.100, 0.189
297.200, 0.199
297.300, 0.166
297.400, 0.154
297.500, 0.171
297.600, 0.191
297.700, 0.158
297.800, 0.150
297.900, 0.155
298.000, 0.165
298.100, 0.138
298.200, 0.144
298.300, 0.167
298.400, 0.170
298.500, 0.158
298.600, 0.156
298.700, 0.155
298.800, 0.147
298.900, 0.175
299.000, 0.149
299.100, 0.166
299.200, 0.149
299.300, 0.171
299.400, 0.164
299.500, 0.152
299.600, 0.167
299.700, 0.173
299.800, 0.148
299.900, 0.161
300.000, 0.154
300.100, 0.163
300.200, 0.161
300.300, 0.175
300.400, 0.204
300.500, 0.218
300.600, 0.178
300.700, 0.180
300.800, 0.165
300.900, 0.164
301.000, 0.170
301.100, 0.161
301.200, 0.200
301.300, 0.181
301.400, 0.187
301.500, 0.190
301.600, 0.170
301.700, 0.155
301.800, 0.169
301.900, 0.190
302.000, 0.199
302.100, 0.204
302.200, 0.216
302.300, 0.198
302.400, 0.236
302.500, 0.210
302.600, 0.192
302.700, 0.195
302.800, 0.182
302.900, 0.187
303.000, 0.191
303.100, 0.165
303.200, 0.168
303.300, 0.177
303.400, 0.189
303.500, 0.174
303.600, 0.164
303.700, 0.171
303.800, 0.209
303.900, 0.217
304.000, 0.181
304.100, 0.204
304.200, 0.191
304.300, 0.195
304.400, 0.193
304.500, 0.204
304.600, 0.190
304.700, 0.210
304.800, 0.210
304.900, 0.183
305.000, 0.211
305.100, 0.203
305.200, 0.218
305.300, 0.250
305.400, 0.223
305.500, 0.216
305.600, 0.216
305.700, 0.216
305.800, 0.191
305.900, 0.204
306.000, 0.206
306.100, 0.220
306.200, 0.260
306.300, 0.259
306.400, 0.252
306.500, 0.227
306.600, 0.221
306.700, 0.225
306.800, 0.253
306.900, 0.282
307.000, 0.263
307.100, 0.273
307.200, 0.274
307.300, 0.297
307.400, 0.260
307.500, 0.248
307.600, 0.239
307.700, 0.205
307.800, 0.209
307.900, 0.237
308.000, 0.201
308.100, 0.191
308.200, 0.187
308.300, 0.186
308.400, 0.191
308.500, 0.176
308.600, 0.182
308.700, 0.183
308.800, 0.190
308.900, 0.193
309.000, 0.186
309.100, 0.189
309.200, 0.221
309.300, 0.179
309.400, 0.189
309.500, 0.205
309.600, 0.207
309.700, 0.209
309.800, 0.208
309.900, 0.184
310.000, 0.185
310.100, 0.181
310.200, 0.178
310.300, 0.183
310.400, 0.185
310.500, 0.174
310.600, 0.188
310.700, 0.194
310.800, 0.169
310.900, 0.155
311.000, 0.162
311.100, 0.183
311.200, 0.178
311.300, 0.190
311.400, 0.216
311.500, 0.172
311.600, 0.179
311.700, 0.171
311.800, 0.175
311.900, 0.173
312.000, 0.172
312.100, 0.151
312.200, 0.170
312.300, 0.168
312.400, 0.171
312.500, 0.164
312.600, 0.169
312.700, 0.163
312.800, 0.167
312.900, 0.168
313.000, 0.177
313.100, 0.165
313.200, 0.168
313.300, 0.175
313.400, 0.174
313.500, 0.174
313.600, 0.167
313.700, 0.181
313.800, 0.212
313.900, 0.161
314.000, 0.190
314.100, 0.194
314.200, 0.196
314.300, 0.201
314.400, 0.195
314.500, 0.207
314.600, 0.190
314.700, 0.197
314.800, 0.177
314.900, 0.177
315.000, 0.185
315.100, 0.191
315.200, 0.170
315.300, 0.155
315.400, 0.154
315.500, 0.168
315.600, 0.163
315.700, 0.167
315.800, 0.180
315.900, 0.166
316.000, 0.171
316.100, 0.182
316.200, 0.183
316.300, 0.202
316.400, 0.168
316.500, 0.166
316.600, 0.182
316.700, 0.170
316.800, 0.174
316.900, 0.189
317.000, 0.250
317.100, 0.226
317.200, 0.173
317.300, 0.179
317.400, 0.196
317.500, 0.199
317.600, 0.196
317.700, 0.194
317.800, 0.183
317.900, 0.200
318.000, 0.196
318.100, 0.189
318.200, 0.198
318.300, 0.213
318.400, 0.218
318.500, 0.215
318.600, 0.220
318.700, 0.211
318.800, 0.204
318.900, 0.206
319.000, 0.200
319.100, 0.243
319.200, 0.231
319.300, 0.231
319.400, 0.275
319.500, 0.231
319.600, 0.243
319.700, 0.245
319.800, 0.222
319.900, 0.244
320.000, 0.233
320.100, 0.223
320.200, 0.233
320.300, 0.237
320.400, 0.249
320.500, 0.250
320.600, 0.221
320.700, 0.232
320.800, 0.242
320.900, 0.244
321.000, 0.226
321.100, 0.230
321.200, 0.230
321.300, 0.248
321.400, 0.257
321.500, 0.226
321.600, 0.234
321.700, 0.232
321.800, 0.236
321.900, 0.253
322.000, 0.254
322.100, 0.234
322.200, 0.224
322.300, 0.214
322.400, 0.227
322.500, 0.230
322.600, 0.249
322.700, 0.220
322.800, 0.216
322.900, 0.216
323.000, 0.213
323.100, 0.209
323.200, 0.244
323.300, 0.229
323.400, 0.230
323.500, 0.220
323.600, 0.245
323.700, 0.244
323.800, 0.223
323.900, 0.222
324.000, 0.220
324.100, 0.213
324.200, 0.214
324.300, 0.223
324.400, 0.213
324.500, 0.227
324.600, 0.213
324.700, 0.210
324.800, 0.212
324.900, 0.212
325.000, 0.201
325.100, 0.205
325.200, 0.209
325.300, 0.211
325.400, 0.206
325.500, 0.207
325.600, 0.192
325.700, 0.186
325.800, 0.190
325.900, 0.179
326.000, 0.208
326.100, 0.195
326.200, 0.200
326.300, 0.187
326.400, 0.191
326.500, 0.202
326.600, 0.182
326.700, 0.202
326.800, 0.181
326.900, 0.209
327.000, 0.214
327.100, 0.204
327.200, 0.197
327.300, 0.214
327.400, 0.192
327.500, 0.207
327.600, 0.217
327.700, 0.190
327.800, 0.209
327.900, 0.195
328.000, 0.201
328.100, 0.209
328.200, 0.215
328.300, 0.209
328.400, 0.181
328.500, 0.181
328.600, 0.193
328.700, 0.192
328.800, 0.187
328.900, 0.200
329.000, 0.225
329.100, 0.212
329.200, 0.217
329.300, 0.213
329.400, 0.196
329.500, 0.212
329.600, 0.221
329.700, 0.191
329.800, 0.203
329.900, 0.216
330.000, 0.210
330.100, 0.200
330.200, 0.200
330.300, 0.172
330.400, 0.192
330.500, 0.187
330.600, 0.209
330.700, 0.180
330.800, 0.191
330.900, 0.168
331.000, 0.193
331.100, 0.187
331.200, 0.161
331.300, 0.177
331.400, 0.198
331.500, 0.179
331.600, 0.184
331.700, 0.189
331.800, 0.209
331.900, 0.198
332.000, 0.178
332.100, 0.171
332.200, 0.199
332.300, 0.168
332.400, 0.161
332.500, 0.164
332.600, 0.161
332.700, 0.174
332.800, 0.152
332.900, 0.190
333.000, 0.183
333.100, 0.188
333.200, 0.180
333.300, 0.171
333.400, 0.180
333.500, 0.174
333.600, 0.163
333.700, 0.154
333.800, 0.179
333.900, 0.168
334.000, 0.199
334.100, 0.185
334.200, 0.181
334.300, 0.185
334.400, 0.181
334.500, 0.169
334.600, 0.173
334.700, 0.178
334.800, 0.196
334.900, 0.184
335.000, 0.180
335.100, 0.167
335.200, 0.178
335.300, 0.176
335.400, 0.177
335.500, 0.196
335.600, 0.205
335.700, 0.207
335.800, 0.203
335.900, 0.200
336.000, 0.210
336.100, 0.207
336.200, 0.199
336.300, 0.195
336.400, 0.187
336.500, 0.182
336.600, 0.178
336.700, 0.160
336.800, 0.171
336.900, 0.187
337.000, 0.206
337.100, 0.173
337.200, 0.164
337.300, 0.160
337.400, 0.165
337.500, 0.180
337.600, 0.185
337.700, 0.180
337.800, 0.176
337.900, 0.176
338.000, 0.174
338.100, 0.157
338.200, 0.184
338.300, 0.166
338.400, 0.169
338.500, 0.187
338.600, 0.172
338.700, 0.173
338.800, 0.180
338.900, 0.163
339.000, 0.165
339.100, 0.176
339.200, 0.165
339.300, 0.173
339.400, 0.174
339.500, 0.173
339.600, 0.175
339.700, 0.184
339.800, 0.179
339.900, 0.176
340.000, 0.176
340.100, 0.170
340.200, 0.166
340.300, 0.184
340.400, 0.174
340.500, 0.189
340.600, 0.172
340.700, 0.179
340.800, 0.197
340.900, 0.174
341.000, 0.169
341.100, 0.164
341.200, 0.181
341.300, 0.196
341.400, 0.192
341.500, 0.190
341.600, 0.170
341.700, 0.186
341.800, 0.177
341.900, 0.155
342.000, 0.173
342.100, 0.158
342.200, 0.157
342.300, 0.177
342.400, 0.182
342.500, 0.176
342.600, 0.197
342.700, 0.163
342.800, 0.162
342.900, 0.172
343.000, 0.194
343.100, 0.204
343.200, 0.196
343.300, 0.169
343.400, 0.185
343.500, 0.182
343.600, 0.171
343.700, 0.199
343.800, 0.183
343.900, 0.202
344.000, 0.182
344.100, 0.182
344.200, 0.179
344.300, 0.171
344.400, 0.177
344.500, 0.176
344.600, 0.167
344.700, 0.154
344.800, 0.188
344.900, 0.178
345.000, 0.180
345.100, 0.168
345.200, 0.176
345.300, 0.178
345.400, 0.173
345.500, 0.177
345.600, 0.178
345.700, 0.143
345.800, 0.157
345.900, 0.157
346.000, 0.175
346.100, 0.182
346.200, 0.149
346.300, 0.140
346.400, 0.158
346.500, 0.172
346.600, 0.164
346.700, 0.175
346.800, 0.160
346.900, 0.170
347.000, 0.161
347.100, 0.162
347.200, 0.162
347.300, 0.162
347.400, 0.169
347.500, 0.162
347.600, 0.163
347.700, 0.179
347.800, 0.170
347.900, 0.163
348.000, 0.157
348.100, 0.174
348.200, 0.154
348.300, 0.172
348.400, 0.168
348.500, 0.170
348.600, 0.174
348.700, 0.163
348.800, 0.166
348.900, 0.170
349.000, 0.157
349.100, 0.174
349.200, 0.165
349.300, 0.183
349.400, 0.155
349.500, 0.161
349.600, 0.170
349.700, 0.161
349.800, 0.155
349.900, 0.176
350.000, 0.175
350.100, 0.187
350.200, 0.170
350.300, 0.184
350.400, 0.177
350.500, 0.192
350.600, 0.184
350.700, 0.201
350.800, 0.194
350.900, 0.179
351.000, 0.199
351.100, 0.204
351.200, 0.183
351.300, 0.188
351.400, 0.205
351.500, 0.189
351.600, 0.190
351.700, 0.199
351.800, 0.196
351.900, 0.213
352.000, 0.204
352.100, 0.205
352.200, 0.198
352.300, 0.221
352.400, 0.219
352.500, 0.199
352.600, 0.197
352.700, 0.206
352.800, 0.218
352.900, 0.210
353.000, 0.202
353.100, 0.219
353.200, 0.190
353.300, 0.211
353.400, 0.200
353.500, 0.184
353.600, 0.188
353.700, 0.181
353.800, 0.181
353.900, 0.173
354.000, 0.185
354.100, 0.208
354.200, 0.204
354.300, 0.199
354.400, 0.205
354.500, 0.214
354.600, 0.213
354.700, 0.200
354.800, 0.193
354.900, 0.208
355.000, 0.201
355.100, 0.203
355.200, 0.193
355.300, 0.182
355.400, 0.186
355.500, 0.206
355.600, 0.209
355.700, 0.228
355.800, 0.199
355.900, 0.201
356.000, 0.188
356.100, 0.178
356.200, 0.187
356.300, 0.185
356.400, 0.217
356.500, 0.196
356.600, 0.180
356.700, 0.171
356.800, 0.169
356.900, 0.165
357.000, 0.205
357.100, 0.189
357.200, 0.191
357.300, 0.164
357.400, 0.175
357.500, 0.170
357.600, 0.177
357.700, 0.175
357.800, 0.188
357.900, 0.178
358.000, 0.194
358.100, 0.185
358.200, 0.206
358.300, 0.179
358.400, 0.198
358.500, 0.203
358.600, 0.193
358.700, 0.220
358.800, 0.193
358.900, 0.197
359.000, 0.190
359.100, 0.190
359.200, 0.206
359.300, 0.199
359.400, 0.214
359.500, 0.219
359.600, 0.185
359.700, 0.181
359.800, 0.175
359.900, 0.182
360.000, 0.186
360.100, 0.200
360.200, 0.200
360.300, 0.193
360.400, 0.186
360.500, 0.190
360.600, 0.221
360.700, 0.184
360.800, 0.197
360.900, 0.201
361.000, 0.220
361.100, 0.202
361.200, 0.203
361.300, 0.209
361.400, 0.206
361.500, 0.218
361.600, 0.200
361.700, 0.199
361.800, 0.210
361.900, 0.215
362.000, 0.199
362.100, 0.215
362.200, 0.226
362.300, 0.211
362.400, 0.186
362.500, 0.181
362.600, 0.193
362.700, 0.199
362.800, 0.197
362.900, 0.193
363.000, 0.178
363.100, 0.198
363.200, 0.202
363.300, 0.203
363.400, 0.219
363.500, 0.194
363.600, 0.192
363.700, 0.196
363.800, 0.204
363.900, 0.195
364.000, 0.193
364.100, 0.200
364.200, 0.193
364.300, 0.206
364.400, 0.207
364.500, 0.203
364.600, 0.203
364.700, 0.187
364.800, 0.190
364.900, 0.211
365.000, 0.202
365.100, 0.200
365.200, 0.194
365.300, 0.186
365.400, 0.202
365.500, 0.198
365.600, 0.189
365.700, 0.180
365.800, 0.189
365.900, 0.198
366.000, 0.200
366.100, 0.206
366.200, 0.198
366.300, 0.200
366.400, 0.193
366.500, 0.186
366.600, 0.194
366.700, 0.204
366.800, 0.189
366.900, 0.214
367.000, 0.207
367.100, 0.197
367.200, 0.210
367.300, 0.212
367.400, 0.205
367.500, 0.209
367.600, 0.229
367.700, 0.206
367.800, 0.222
367.900, 0.237
368.000, 0.221
368.100, 0.213
368.200, 0.237
368.300, 0.206
368.400, 0.206
368.500, 0.183
368.600, 0.187
368.700, 0.192
368.800, 0.183
368.900, 0.168
369.000, 0.190
369.100, 0.170
369.200, 0.188
369.300, 0.183
369.400, 0.215
369.500, 0.192
369.600, 0.216
369.700, 0.208
369.800, 0.211
369.900, 0.207
370.000, 0.214
370.100, 0.209
370.200, 0.202
370.300, 0.203
370.400, 0.190
370.500, 0.208
370.600, 0.198
370.700, 0.207
370.800, 0.213
370.900, 0.199
371.000, 0.203
371.100, 0.208
371.200, 0.188
371.300, 0.205
371.400, 0.199
371.500, 0.208
371.600, 0.197
371.700, 0.215
371.800, 0.176
371.900, 0.185
372.000, 0.217
372.100, 0.199
372.200, 0.209
372.300, 0.216
372.400, 0.216
372.500, 0.217
372.600, 0.200
372.700, 0.208
372.800, 0.198
372.900, 0.194
373.000, 0.199
373.100, 0.206
373.200, 0.201
373.300, 0.186
373.400, 0.200
373.500, 0.197
373.600, 0.220
373.700, 0.225
373.800, 0.229
373.900, 0.213
374.000, 0.214
374.100, 0.221
374.200, 0.204
374.300, 0.178
374.400, 0.202
374.500, 0.198
374.600, 0.192
374.700, 0.192
374.800, 0.192
374.900, 0.210
375.000, 0.209
375.100, 0.180
375.200, 0.183
375.300, 0.175
375.400, 0.185
375.500, 0.202
375.600, 0.170
375.700, 0.176
375.800, 0.202
375.900, 0.188
376.000, 0.198
376.100, 0.204
376.200, 0.188
376.300, 0.183
376.400, 0.191
376.500, 0.184
376.600, 0.165
376.700, 0.183
376.800, 0.186
376.900, 0.200
377.000, 0.191
377.100, 0.162
377.200, 0.197
377.300, 0.183
377.400, 0.192
377.500, 0.166
377.600, 0.200
377.700, 0.189
377.800, 0.186
377.900, 0.158
378.000, 0.162
378.100, 0.180
378.200, 0.174
378.300, 0.150
378.400, 0.164
378.500, 0.186
378.600, 0.183
378.700, 0.207
378.800, 0.173
378.900, 0.197
379.000, 0.204
379.100, 0.180
379.200, 0.196
379.300, 0.205
379.400, 0.200
379.500, 0.166
379.600, 0.184
379.700, 0.187
379.800, 0.182
379.900, 0.194
380.000, 0.195
380.100, 0.194
380.200, 0.180
380.300, 0.207
380.400, 0.184
380.500, 0.180
380.600, 0.181
380.700, 0.200
380.800, 0.210
380.900, 0.199
381.000, 0.212
381.100, 0.216
381.200, 0.211
381.300, 0.200
381.400, 0.175
381.500, 0.186
381.600, 0.188
381.700, 0.167
381.800, 0.183
381.900, 0.166
382.000, 0.199
382.100, 0.175
382.200, 0.178
382.300, 0.171
382.400, 0.181
382.500, 0.180
382.600, 0.172
382.700, 0.174
382.800, 0.204
382.900, 0.181
383.000, 0.172
383.100, 0.185
383.200, 0.159
383.300, 0.184
383.400, 0.186
383.500, 0.169
383.600, 0.164
383.700, 0.182
383.800, 0.177
383.900, 0.183
384.000, 0.168
384.100, 0.178
384.200, 0.154
384.300, 0.174
384.400, 0.183
384.500, 0.153
384.600, 0.171
384.700, 0.178
384.800, 0.159
384.900, 0.168
385.000, 0.153
385.100, 0.161
385.200, 0.171
385.300, 0.159
385.400, 0.166
385.500, 0.162
385.600, 0.168
385.700, 0.173
385.800, 0.164
385.900, 0.173
386.000, 0.190
386.100, 0.163
386.200, 0.173
386.300, 0.165
386.400, 0.173
386.500, 0.163
386.600, 0.193
386.700, 0.203
386.800, 0.187
386.900, 0.212
387.000, 0.209
387.100, 0.192
387.200, 0.205
387.300, 0.180
387.400, 0.185
387.500, 0.175
387.600, 0.189
387.700, 0.192
387.800, 0.191
387.900, 0.197
388.000, 0.188
388.100, 0.187
388.200, 0.194
388.300, 0.189
388.400, 0.189
388.500, 0.184
388.600, 0.211
388.700, 0.207
388.800, 0.201
388.900, 0.200
389.000, 0.216
389.100, 0.216
389.200, 0.177
389.300, 0.191
389.400, 0.199
389.500, 0.189
389.600, 0.156
389.700, 0.168
389.800, 0.161
389.900, 0.172
390.000, 0.164
390.100, 0.184
390.200, 0.176
390.300, 0.168
390.400, 0.172
390.500, 0.188
390.600, 0.195
390.700, 0.177
390.800, 0.199
390.900, 0.168
391.000, 0.173
391.100, 0.202
391.200, 0.168
391.300, 0.174
391.400, 0.172
391.500, 0.160
391.600, 0.154
391.700, 0.175
391.800, 0.166
391.900, 0.179
392.000, 0.169
392.100, 0.151
392.200, 0.162
392.300, 0.161
392.400, 0.157
392.500, 0.151
392.600, 0.173
392.700, 0.149
392.800, 0.163
392.900, 0.149
393.000, 0.182
393.100, 0.197
393.200, 0.192
393.300, 0.187
393.400, 0.196
393.500, 0.197
393.600, 0.184
393.700, 0.168
393.800, 0.182
393.900, 0.165
394.000, 0.167
394.100, 0.168
394.200, 0.170
394.300, 0.177
394.400, 0.160
394.500, 0.169
394.600, 0.186
394.700, 0.158
394.800, 0.156
394.900, 0.171
395.000, 0.144
395.100, 0.153
395.200, 0.166
395.300, 0.162
395.400, 0.158
395.500, 0.160
395.600, 0.163
395.700, 0.147
395.800, 0.157
395.900, 0.179
396.000, 0.146
396.100, 0.165
396.200, 0.167
396.300, 0.159
396.400, 0.159
396.500, 0.154
396.600, 0.153
396.700, 0.166
396.800, 0.150
396.900, 0.155
397.000, 0.163
397.100, 0.152
397.200, 0.155
397.300, 0.176
397.400, 0.173
397.500, 0.168
397.600, 0.159
397.700, 0.170
397.800, 0.157
397.900, 0.143
398.000, 0.157
398.100, 0.155
398.200, 0.150
398.300, 0.137
398.400, 0.144
398.500, 0.149
398.600, 0.171
398.700, 0.165
398.800, 0.165
398.900, 0.151
399.000, 0.170
399.100, 0.170
399.200, 0.172
399.300, 0.168
399.400, 0.179
399.500, 0.185
399.600, 0.174
399.700, 0.175
399.800, 0.166
399.900, 0.180
400.000, 0.189
400.100, 0.201
400.200, 0.179
400.300, 0.158
400.400, 0.165
400.500, 0.168
400.600, 0.194
400.700, 0.202
400.800, 0.171
400.900, 0.172
401.000, 0.186
401.100, 0.163
401.200, 0.184
401.300, 0.179
401.400, 0.169
401.500, 0.160
401.600, 0.183
401.700, 0.157
401.800, 0.168
401.900, 0.179
402.000, 0.167
402.100, 0.197
402.200, 0.170
402.300, 0.161
402.400, 0.157
402.500, 0.164
402.600, 0.175
402.700, 0.166
402.800, 0.159
402.900, 0.160
403.000, 0.163
403.100, 0.161
403.200, 0.171
403.300, 0.182
403.400, 0.164
403.500, 0.166
403.600, 0.161
403.700, 0.153
403.800, 0.146
403.900, 0.152
404.000, 0.174
404.100, 0.163
404.200, 0.171
404.300, 0.167
404.400, 0.160
404.500, 0.161
404.600, 0.153
404.700, 0.167
404.800, 0.176
404.900, 0.158
405.000, 0.166
405.100, 0.159
405.200, 0.169
405.300, 0.169
405.400, 0.152
405.500, 0.154
405.600, 0.167
405.700, 0.172
405.800, 0.157
405.900, 0.151
406.000, 0.161
406.100, 0.168
406.200, 0.171
406.300, 0.190
406.400, 0.168
406.500, 0.151
406.600, 0.160
406.700, 0.155
406.800, 0.189
406.900, 0.149
407.000, 0.155
407.100, 0.167
407.200, 0.191
407.300, 0.192
407.400, 0.223
407.500, 0.178
407.600, 0.196
407.700, 0.175
407.800, 0.183
407.900, 0.182
408.000, 0.200
408.100, 0.198
408.200, 0.205
408.300, 0.207
408.400, 0.199
408.500, 0.208
408.600, 0.195
408.700, 0.181
408.800, 0.181
408.900, 0.164
409.000, 0.174
409.100, 0.171
409.200, 0.178
409.300, 0.179
409.400, 0.181
409.500, 0.192
409.600, 0.193
409.700, 0.200
409.800, 0.184
409.900, 0.193
410.000, 0.225
410.100, 0.207
410.200, 0.190
410.300, 0.207
410.400, 0.193
410.500, 0.216
410.600, 0.198
410.700, 0.190
410.800, 0.188
410.900, 0.210
411.000, 0.219
411.100, 0.201
411.200, 0.244
411.300, 0.205
411.400, 0.206
411.500, 0.198
411.600, 0.215
411.700, 0.242
411.800, 0.240
411.900, 0.228
412.000, 0.206
412.100, 0.211
412.200, 0.211
412.300, 0.200
412.400, 0.219
412.500, 0.197
412.600, 0.212
412.700, 0.193
412.800, 0.204
412.900, 0.228
413.000, 0.222
413.100, 0.215
413.200, 0.213
413.300, 0.238
413.400, 0.277
413.500, 0.269
413.600, 0.226
413.700, 0.218
413.800, 0.225
413.900, 0.226
414.000, 0.190
414.100, 0.212
414.200, 0.217
414.300, 0.206
414.400, 0.206
414.500, 0.203
414.600, 0.203
414.700, 0.216
414.800, 0.203
414.900, 0.192
415.000, 0.193
415.100, 0.206
415.200, 0.208
415.300, 0.192
415.400, 0.206
415.500, 0.219
415.600, 0.208
415.700, 0.194
415.800, 0.195
415.900, 0.227
416.000, 0.187
416.100, 0.188
416.200, 0.194
416.300, 0.225
416.400, 0.215
416.500, 0.215
416.600, 0.185
416.700, 0.192
416.800, 0.236
416.900, 0.226
417.000, 0.236
417.100, 0.197
417.200, 0.190
417.300, 0.201
417.400, 0.175
417.500, 0.214
417.600, 0.195
417.700, 0.215
417.800, 0.177
417.900, 0.183
418.000, 0.192
418.100, 0.206
418.200, 0.173
418.300, 0.175
418.400, 0.174
418.500, 0.206
418.600, 0.200
418.700, 0.210
418.800, 0.195
418.900, 0.194
419.000, 0.196
419.100, 0.204
419.200, 0.205
419.300, 0.194
419.400, 0.221
419.500, 0.198
419.600, 0.189
419.700, 0.183
419.800, 0.187
419.900, 0.198
420.000, 0.188
420.100, 0.202
420.200, 0.230
420.300, 0.262
420.400, 0.196
420.500, 0.207
420.600, 0.217
420.700, 0.208
420.800, 0.226
420.900, 0.208
421.000, 0.224
421.100, 0.227
421.200, 0.199
421.300, 0.207
421.400, 0.190
421.500, 0.186
421.600, 0.219
421.700, 0.185
421.800, 0.193
421.900, 0.195
422.000, 0.182
422.100, 0.183
422.200, 0.204
422.300, 0.199
422.400, 0.193
422.500, 0.182
422.600, 0.191
422.700, 0.165
422.800, 0.167
422.900, 0.223
423.000, 0.193
423.100, 0.183
423.200, 0.182
423.300, 0.189
423.400, 0.193
423.500, 0.209
423.600, 0.187
423.700, 0.207
423.800, 0.205
423.900, 0.175
424.000, 0.184
424.100, 0.201
424.200, 0.176
424.300, 0.197
424.400, 0.215
424.500, 0.194
424.600, 0.189
424.700, 0.188
424.800, 0.192
424.900, 0.181
425.000, 0.180
425.100, 0.192
425.200, 0.217
425.300, 0.186
425.400, 0.202
425.500, 0.210
425.600, 0.207
425.700, 0.228
425.800, 0.201
425.900, 0.197
426.000, 0.223
426.100, 0.244
426.200, 0.205
426.300, 0.201
426.400, 0.201
426.500, 0.194
426.600, 0.200
426.700, 0.216
426.800, 0.216
426.900, 0.198
427.000, 0.183
427.100, 0.176
427.200, 0.192
427.300, 0.191
427.400, 0.201
427.500, 0.209
427.600, 0.192
427.700, 0.213
427.800, 0.200
427.900, 0.211
428.000, 0.174
428.100, 0.172
428.200, 0.177
428.300, 0.185
428.400, 0.195
428.500, 0.191
428.600, 0.210
428.700, 0.217
428.800, 0.184
428.900, 0.185
429.000, 0.183
429.100, 0.200
429.200, 0.203
429.300, 0.180
429.400, 0.177
429.500, 0.179
429.600, 0.194
429.700, 0.189
429.800, 0.218
429.900, 0.206
430.000, 0.196
430.100, 0.209
430.200, 0.208
430.300, 0.184
430.400, 0.201
430.500, 0.206
430.600, 0.203
430.700, 0.173
430.800, 0.195
430.900, 0.205
431.000, 0.222
431.100, 0.216
431.200, 0.208
431.300, 0.200
431.400, 0.186
431.500, 0.211
431.600, 0.220
431.700, 0.214
431.800, 0.211
431.900, 0.220
432.000, 0.207
432.100, 0.209
432.200, 0.226
432.300, 0.202
432.400, 0.193
432.500, 0.194
432.600, 0.202
432.700, 0.200
432.800, 0.216
432.900, 0.228
433.000, 0.210
433.100, 0.234
433.200, 0.242
433.300, 0.235
433.400, 0.238
433.500, 0.220
433.600, 0.229
433.700, 0.250
433.800, 0.216
433.900, 0.223
434.000, 0.223
434.100, 0.219
434.200, 0.210
434.300, 0.195
434.400, 0.209
434.500, 0.212
434.600, 0.173
434.700, 0.182
434.800, 0.195
434.900, 0.188
435.000, 0.194
435.100, 0.190
435.200, 0.194
435.300, 0.192
435.400, 0.168
435.500, 0.185
435.600, 0.179
435.700, 0.188
435.800, 0.205
435.900, 0.190
436.000, 0.205
436.100, 0.214
436.200, 0.202
436.300, 0.229
436.400, 0.234
436.500, 0.250
436.600, 0.246
436.700, 0.217
436.800, 0.234
436.900, 0.203
437.000, 0.210
437.100, 0.238
437.200, 0.213
437.300, 0.207
437.400, 0.218
437.500, 0.211
437.600, 0.204
437.700, 0.231
437.800, 0.223
437.900, 0.214
438.000, 0.204
438.100, 0.207
438.200, 0.229
438.300, 0.233
438.400, 0.224
438.500, 0.237
438.600, 0.219
438.700, 0.187
438.800, 0.200
438.900, 0.180
439.000, 0.186
439.100, 0.182
439.200, 0.217
439.300, 0.216
439.400, 0.196
439.500, 0.205
439.600, 0.200
439.700, 0.188
439.800, 0.176
439.900, 0.190
440.000, 0.207
440.100, 0.192
440.200, 0.181
440.300, 0.196
440.400, 0.202
440.500, 0.198
440.600, 0.202
440.700, 0.211
440.800, 0.192
440.900, 0.203
441.000, 0.206
441.100, 0.207
441.200, 0.196
441.300, 0.196
441.400, 0.197
441.500, 0.187
441.600, 0.173
441.700, 0.170
441.800, 0.168
441.900, 0.194
442.000, 0.178
442.100, 0.185
442.200, 0.191
442.300, 0.190
442.400, 0.204
442.500, 0.201
442.600, 0.198
442.700, 0.214
442.800, 0.216
442.900, 0.217
443.000, 0.177
443.100, 0.194
443.200, 0.188
443.300, 0.175
443.400, 0.181
443.500, 0.175
443.600, 0.195
443.700, 0.191
443.800, 0.193
443.900, 0.221
444.000, 0.192
444.100, 0.203
444.200, 0.200
444.300, 0.200
444.400, 0.187
444.500, 0.176
444.600, 0.181
444.700, 0.173
444.800, 0.167
444.900, 0.174
445.000, 0.184
445.100, 0.181
445.200, 0.173
445.300, 0.184
445.400, 0.176
445.500, 0.182
445.600, 0.174
445.700, 0.214
445.800, 0.199
445.900, 0.221
446.000, 0.203
446.100, 0.184
446.200, 0.203
446.300, 0.191
446.400, 0.212
446.500, 0.222
446.600, 0.221
446.700, 0.216
446.800, 0.214
446.900, 0.238
447.000, 0.224
447.100, 0.221
447.200, 0.196
447.300, 0.186
447.400, 0.204
447.500, 0.191
447.600, 0.184
447.700, 0.203
447.800, 0.196
447.900, 0.178
448.000, 0.205
448.100, 0.227
448.200, 0.202
448.300, 0.206
448.400, 0.196
448.500, 0.211
448.600, 0.186
448.700, 0.170
448.800, 0.184
448.900, 0.186
449.000, 0.217
449.100, 0.214
449.200, 0.220
449.300, 0.230
449.400, 0.175
449.500, 0.185
449.600, 0.187
449.700, 0.181
449.800, 0.183
449.900, 0.169
450.000, 0.180
450.100, 0.182
450.200, 0.182
450.300, 0.205
450.400, 0.198
450.500, 0.221
450.600, 0.209
450.700, 0.205
450.800, 0.208
450.900, 0.218
451.000, 0.208
451.100, 0.211
451.200, 0.203
451.300, 0.219
451.400, 0.206
451.500, 0.201
451.600, 0.211
451.700, 0.235
451.800, 0.220
451.900, 0.234
452.000, 0.223
452.100, 0.248
452.200, 0.221
452.300, 0.216
452.400, 0.209
452.500, 0.225
452.600, 0.253
452.700, 0.277
452.800, 0.243
452.900, 0.250
453.000, 0.199
453.100, 0.184
453.200, 0.205
453.300, 0.189
453.400, 0.211
453.500, 0.178
453.600, 0.185
453.700, 0.179
453.800, 0.186
453.900, 0.186
454.000, 0.185
454.100, 0.202
454.200, 0.204
454.300, 0.180
454.400, 0.204
454.500, 0.213
454.600, 0.195
454.700, 0.219
454.800, 0.205
454.900, 0.198
455.000, 0.182
455.100, 0.206
455.200, 0.213
455.300, 0.236
455.400, 0.221
455.500, 0.224
455.600, 0.197
455.700, 0.217
455.800, 0.214
455.900, 0.224
456.000, 0.215
456.100, 0.207
456.200, 0.216
456.300, 0.206
456.400, 0.204
456.500, 0.228
456.600, 0.225
456.700, 0.221
456.800, 0.231
456.900, 0.233
457.000, 0.221
457.100, 0.256
457.200, 0.233
457.300, 0.260
457.400, 0.238
457.500, 0.227
457.600, 0.230
457.700, 0.219
457.800, 0.239
457.900, 0.195
458.000, 0.218
458.100, 0.212
458.200, 0.198
458.300, 0.196
458.400, 0.204
458.500, 0.223
458.600, 0.198
458.700, 0.226
458.800, 0.213
458.900, 0.229
459.000, 0.229
459.100, 0.232
459.200, 0.195
459.300, 0.179
459.400, 0.199
459.500, 0.199
459.600, 0.202
459.700, 0.206
459.800, 0.209
459.900, 0.188
460.000, 0.200
460.100, 0.223
460.200, 0.213
460.300, 0.188
460.400, 0.173
460.500, 0.185
460.600, 0.165
460.700, 0.183
460.800, 0.180
460.900, 0.176
461.000, 0.172
461.100, 0.177
461.200, 0.229
461.300, 0.211
461.400, 0.217
461.500, 0.209
461.600, 0.189
461.700, 0.200
461.800, 0.187
461.900, 0.198
462.000, 0.200
462.100, 0.193
462.200, 0.180
462.300, 0.213
462.400, 0.196
462.500, 0.210
462.600, 0.191
462.700, 0.219
462.800, 0.204
462.900, 0.207
463.000, 0.193
463.100, 0.207
463.200, 0.197
463.300, 0.193
463.400, 0.206
463.500, 0.183
463.600, 0.211
463.700, 0.205
463.800, 0.212
463.900, 0.214
464.000, 0.199
464.100, 0.235
464.200, 0.216
464.300, 0.193
464.400, 0.215
464.500, 0.233
464.600, 0.227
464.700, 0.198
464.800, 0.207
464.900, 0.226
465.000, 0.195
465.100, 0.225
465.200, 0.234
465.300, 0.212
465.400, 0.214
465.500, 0.201
465.600, 0.220
465.700, 0.227
465.800, 0.255
465.900, 0.215
466.000, 0.212
466.100, 0.237
466.200, 0.241
466.300, 0.222
466.400, 0.194
466.500, 0.198
466.600, 0.218
466.700, 0.232
466.800, 0.213
466.900, 0.223
467.000, 0.227
467.100, 0.232
467.200, 0.216
467.300, 0.208
467.400, 0.215
467.500, 0.199
467.600, 0.210
467.700, 0.222
467.800, 0.210
467.900, 0.196
468.000, 0.227
468.100, 0.238
468.200, 0.221
468.300, 0.218
468.400, 0.243
468.500, 0.218
468.600, 0.212
468.700, 0.236
468.800, 0.217
468.900, 0.196
469.000, 0.214
469.100, 0.209
469.200, 0.208
469.300, 0.222
469.400, 0.227
469.500, 0.236
469.600, 0.210
469.700, 0.220
469.800, 0.199
469.900, 0.205
470.000, 0.223
470.100, 0.244
470.200, 0.221
470.300, 0.216
470.400, 0.232
470.500, 0.211
470.600, 0.238
470.700, 0.228
470.800, 0.201
470.900, 0.196
471.000, 0.185
471.100, 0.187
471.200, 0.212
471.300, 0.192
471.400, 0.202
471.500, 0.193
471.600, 0.215
471.700, 0.223
471.800, 0.217
471.900, 0.232
472.000, 0.211
472.100, 0.215
472.200, 0.217
472.300, 0.227
472.400, 0.200
472.500, 0.246
472.600, 0.220
472.700, 0.203
472.800, 0.197
472.900, 0.191
473.000, 0.202
473.100, 0.200
473.200, 0.215
473.300, 0.220
473.400, 0.197
473.500, 0.207
473.600, 0.207
473.700, 0.225
473.800, 0.214
473.900, 0.205
474.000, 0.229
474.100, 0.210
474.200, 0.211
474.300, 0.190
474.400, 0.213
474.500, 0.209
474.600, 0.204
474.700, 0.227
474.800, 0.210
474.900, 0.221
475.000, 0.222
475.100, 0.227
475.200, 0.216
475.300, 0.241
475.400, 0.233
475.500, 0.210
475.600, 0.220
475.700, 0.227
475.800, 0.204
475.900, 0.189
476.000, 0.192
476.100, 0.214
476.200, 0.198
476.300, 0.203
476.400, 0.199
476.500, 0.200
476.600, 0.213
476.700, 0.192
476.800, 0.202
476.900, 0.209
477.000, 0.223
477.100, 0.217
477.200, 0.204
477.300, 0.210
477.400, 0.219
477.500, 0.206
477.600, 0.227
477.700, 0.220
477.800, 0.238
477.900, 0.222
478.000, 0.254
478.100, 0.240
478.200, 0.231
478.300, 0.221
478.400, 0.232
478.500, 0.225
478.600, 0.208
478.700, 0.214
478.800, 0.214
478.900, 0.233
479.000, 0.227
479.100, 0.219
479.200, 0.210
479.300, 0.225
479.400, 0.229
479.500, 0.201
479.600, 0.232
479.700, 0.231
479.800, 0.217
479.900, 0.217
480.000, 0.216
480.100, 0.221
480.200, 0.201
480.300, 0.246
480.400, 0.215
480.500, 0.218
480.600, 0.202
480.700, 0.205
480.800, 0.209
480.900, 0.210
481.000, 0.212
481.100, 0.207
481.200, 0.207
481.300, 0.235
481.400, 0.217
481.500, 0.209
481.600, 0.226
481.700, 0.228
481.800, 0.231
481.900, 0.202
482.000, 0.193
482.100, 0.196
482.200, 0.212
482.300, 0.251
482.400, 0.257
482.500, 0.238
482.600, 0.205
482.700, 0.217
482.800, 0.213
482.900, 0.207
483.000, 0.199
483.100, 0.216
483.200, 0.224
483.300, 0.204
483.400, 0.232
483.500, 0.207
483.600, 0.198
483.700, 0.205
483.800, 0.223
483.900, 0.203
484.000, 0.204
484.100, 0.205
484.200, 0.204
484.300, 0.194
484.400, 0.201
484.500, 0.198
484.600, 0.212
484.700, 0.198
484.800, 0.210
484.900, 0.208
485.000, 0.200
485.100, 0.204
485.200, 0.212
485.300, 0.220
485.400, 0.211
485.500, 0.200
485.600, 0.201
485.700, 0.197
485.800, 0.193
485.900, 0.215
486.000, 0.193
486.100, 0.204
486.200, 0.222
486.300, 0.220
486.400, 0.216
486.500, 0.216
486.600, 0.210
486.700, 0.209
486.800, 0.226
486.900, 0.213
487.000, 0.193
487.100, 0.214
487.200, 0.186
487.300, 0.193
487.400, 0.208
487.500, 0.210
487.600, 0.217
487.700, 0.232
487.800, 0.233
487.900, 0.226
488.000, 0.231
488.100, 0.225
488.200, 0.215
488.300, 0.220
488.400, 0.199
488.500, 0.203
488.600, 0.209
488.700, 0.201
488.800, 0.214
488.900, 0.220
489.000, 0.222
489.100, 0.205
489.200, 0.202
489.300, 0.212
489.400, 0.203
489.500, 0.209
489.600, 0.217
489.700, 0.208
489.800, 0.207
489.900, 0.199
490.000, 0.208
490.100, 0.198
490.200, 0.204
490.300, 0.216
490.400, 0.199
490.500, 0.219
490.600, 0.229
490.700, 0.205
490.800, 0.196
490.900, 0.221
491.000, 0.228
491.100, 0.249
491.200, 0.246
491.300, 0.237
491.400, 0.237
491.500, 0.246
491.600, 0.230
491.700, 0.233
491.800, 0.240
491.900, 0.225
492.000, 0.220
492.100, 0.226
492.200, 0.216
492.300, 0.216
492.400, 0.215
492.500, 0.238
492.600, 0.237
492.700, 0.217
492.800, 0.225
492.900, 0.234
493.000, 0.223
493.100, 0.215
493.200, 0.230
493.300, 0.229
493.400, 0.218
493.500, 0.239
493.600, 0.230
493.700, 0.228
493.800, 0.235
493.900, 0.259
494.000, 0.234
494.100, 0.246
494.200, 0.230
494.300, 0.224
494.400, 0.229
494.500, 0.212
494.600, 0.218
494.700, 0.246
494.800, 0.247
494.900, 0.246
495.000, 0.251
495.100, 0.252
495.200, 0.239
495.300, 0.235
495.400, 0.238
495.500, 0.212
495.600, 0.236
495.700, 0.204
495.800, 0.210
495.900, 0.203
496.000, 0.214
496.100, 0.214
496.200, 0.211
496.300, 0.209
496.400, 0.197
496.500, 0.195
496.600, 0.220
496.700, 0.213
496.800, 0.215
496.900, 0.213
497.000, 0.222
497.100, 0.214
497.200, 0.220
497.300, 0.240
497.400, 0.225
497.500, 0.217
497.600, 0.223
497.700, 0.234
497.800, 0.224
497.900, 0.213
498.000, 0.207
498.100, 0.211
498.200, 0.216
498.300, 0.234
498.400, 0.208
498.500, 0.213
498.600, 0.217
498.700, 0.220
498.800, 0.202
498.900, 0.225
499.000, 0.220
499.100, 0.235
499.200, 0.196
499.300, 0.179
499.400, 0.199
499.500, 0.208
499.600, 0.216
499.700, 0.199
499.800, 0.195
499.900, 0.197
500.000, 0.202
500.100, 0.209
500.200, 0.200
500.300, 0.193
500.400, 0.205
500.500, 0.202
500.600, 0.190
500.700, 0.202
500.800, 0.206
500.900, 0.215
501.000, 0.225
501.100, 0.219
501.200, 0.239
501.300, 0.212
501.400, 0.204
501.500, 0.229
501.600, 0.251
501.700, 0.204
501.800, 0.192
501.900, 0.202
502.000, 0.200
502.100, 0.210
502.200, 0.215
502.300, 0.227
502.400, 0.199
502.500, 0.191
502.600, 0.181
502.700, 0.194
502.800, 0.187
502.900, 0.205
503.000, 0.203
503.100, 0.183
503.200, 0.202
503.300, 0.211
503.400, 0.231
503.500, 0.289
503.600, 0.275
503.700, 0.243
503.800, 0.242
503.900, 0.229
504.000, 0.272
504.100, 0.233
504.200, 0.209
504.300, 0.210
504.400, 0.190
504.500, 0.203
504.600, 0.189
504.700, 0.206
504.800, 0.249
504.900, 0.226
505.000, 0.229
505.100, 0.229
505.200, 0.239
505.300, 0.228
505.400, 0.236
505.500, 0.201
505.600, 0.227
505.700, 0.224
505.800, 0.211
505.900, 0.199
506.000, 0.215
506.100, 0.219
506.200, 0.227
506.300, 0.222
506.400, 0.208
506.500, 0.221
506.600, 0.205
506.700, 0.224
506.800, 0.239
506.900, 0.214
507.000, 0.217
507.100, 0.200
507.200, 0.189
507.300, 0.200
507.400, 0.193
507.500, 0.188
507.600, 0.193
507.700, 0.197
507.800, 0.194
507.900, 0.212
508.000, 0.207
508.100, 0.202
508.200, 0.219
508.300, 0.204
508.400, 0.193
508.500, 0.200
508.600, 0.211
508.700, 0.203
508.800, 0.200
508.900, 0.193
509.000, 0.200
509.100, 0.214
509.200, 0.212
509.300, 0.195
509.400, 0.215
509.500, 0.215
509.600, 0.202
509.700, 0.197
509.800, 0.198
509.900, 0.232
510.000, 0.221
510.100, 0.211
510.200, 0.203
510.300, 0.199
510.400, 0.206
510.500, 0.196
510.600, 0.197
510.700, 0.208
510.800, 0.208
510.900, 0.207
511.000, 0.214
511.100, 0.192
511.200, 0.204
511.300, 0.216
511.400, 0.201
511.500, 0.212
511.600, 0.206
511.700, 0.197
511.800, 0.207
511.900, 0.208
512.000, 0.201
512.100, 0.217
512.200, 0.222
512.300, 0.215
512.400, 0.230
512.500, 0.223
512.600, 0.233
512.700, 0.221
512.800, 0.216
512.900, 0.231
513.000, 0.217
513.100, 0.242
513.200, 0.209
513.300, 0.208
513.400, 0.206
513.500, 0.213
513.600, 0.212
513.700, 0.215
513.800, 0.232
513.900, 0.212
514.000, 0.201
514.100, 0.203
514.200, 0.239
514.300, 0.223
514.400, 0.233
514.500, 0.220
514.600, 0.207
514.700, 0.228
514.800, 0.231
514.900, 0.233
515.000, 0.235
515.100, 0.209
515.200, 0.232
515.300, 0.229
515.400, 0.226
515.500, 0.232
515.600, 0.200
515.700, 0.222
515.800, 0.233
515.900, 0.205
516.000, 0.232
516.100, 0.233
516.200, 0.217
516.300, 0.216
516.400, 0.215
516.500, 0.221
516.600, 0.212
516.700, 0.221
516.800, 0.210
516.900, 0.206
517.000, 0.195
517.100, 0.215
517.200, 0.243
517.300, 0.225
517.400, 0.207
517.500, 0.223
517.600, 0.214
517.700, 0.229
517.800, 0.219
517.900, 0.210
518.000, 0.208
518.100, 0.215
518.200, 0.225
518.300, 0.198
518.400, 0.222
518.500, 0.238
518.600, 0.219
518.700, 0.215
518.800, 0.215
518.900, 0.223
519.000, 0.215
519.100, 0.214
519.200, 0.208
519.300, 0.211
519.400, 0.204
519.500, 0.195
519.600, 0.207
519.700, 0.215
519.800, 0.220
519.900, 0.207
520.000, 0.208
520.100, 0.217
520.200, 0.210
520.300, 0.220
520.400, 0.193
520.500, 0.211
520.600, 0.228
520.700, 0.223
520.800, 0.226
520.900, 0.230
521.000, 0.202
521.100, 0.203
521.200, 0.199
521.300, 0.210
521.400, 0.221
521.500, 0.188
521.600, 0.196
521.700, 0.231
521.800, 0.202
521.900, 0.203
522.000, 0.219
522.100, 0.213
522.200, 0.198
522.300, 0.210
522.400, 0.238
522.500, 0.229
522.600, 0.240
522.700, 0.240
522.800, 0.227
522.900, 0.217
523.000, 0.230
523.100, 0.222
523.200, 0.233
523.300, 0.244
523.400, 0.240
523.500, 0.239
523.600, 0.215
523.700, 0.231
523.800, 0.213
523.900, 0.215
524.000, 0.214
524.100, 0.237
524.200, 0.232
524.300, 0.224
524.400, 0.237
524.500, 0.232
524.600, 0.238
524.700, 0.235
524.800, 0.225
524.900, 0.227
525.000, 0.234
525.100, 0.225
525.200, 0.222
525.300, 0.225
525.400, 0.206
525.500, 0.221
525.600, 0.225
525.700, 0.240
525.800, 0.212
525.900, 0.225
526.000, 0.240
526.100, 0.237
526.200, 0.238
526.300, 0.231
526.400, 0.218
526.500, 0.236
526.600, 0.213
526.700, 0.226
526.800, 0.217
526.900, 0.231
527.000, 0.225
527.100, 0.214
527.200, 0.212
527.300, 0.212
527.400, 0.209
527.500, 0.198
527.600, 0.214
527.700, 0.219
527.800, 0.224
527.900, 0.219
528.000, 0.216
528.100, 0.210
528.200, 0.211
528.300, 0.211
528.400, 0.232
528.500, 0.225
528.600, 0.234
528.700, 0.237
528.800, 0.216
528.900, 0.246
529.000, 0.213
529.100, 0.209
529.200, 0.212
529.300, 0.223
529.400, 0.232
529.500, 0.228
529.600, 0.218
529.700, 0.232
529.800, 0.237
529.900, 0.227
530.000, 0.198
530.100, 0.208
530.200, 0.212
530.300, 0.214
530.400, 0.213
530.500, 0.203
530.600, 0.218
530.700, 0.208
530.800, 0.214
530.900, 0.221
531.000, 0.217
531.100, 0.222
531.200, 0.220
531.300, 0.224
531.400, 0.210
531.500, 0.217
531.600, 0.205
531.700, 0.229
531.800, 0.218
531.900, 0.209
532.000, 0.225
532.100, 0.212
532.200, 0.227
532.300, 0.207
532.400, 0.194
532.500, 0.213
532.600, 0.196
532.700, 0.210
532.800, 0.211
532.900, 0.208
533.000, 0.205
533.100, 0.198
533.200, 0.202
533.300, 0.202
533.400, 0.196
533.500, 0.190
533.600, 0.205
533.700, 0.198
533.800, 0.209
533.900, 0.204
534.000, 0.197
534.100, 0.203
534.200, 0.195
534.300, 0.212
534.400, 0.229
534.500, 0.250
534.600, 0.248
534.700, 0.225
534.800, 0.215
534.900, 0.221
535.000, 0.183
535.100, 0.201
535.200, 0.205
535.300, 0.210
535.400, 0.216
535.500, 0.203
535.600, 0.211
535.700, 0.202
535.800, 0.210
535.900, 0.199
536.000, 0.202
536.100, 0.196
536.200, 0.202
536.300, 0.198
536.400, 0.203
536.500, 0.213
536.600, 0.206
536.700, 0.204
536.800, 0.190
536.900, 0.200
537.000, 0.194
537.100, 0.204
537.200, 0.191
537.300, 0.203
537.400, 0.224
537.500, 0.214
537.600, 0.191
537.700, 0.209
537.800, 0.198
537.900, 0.215
538.000, 0.189
538.100, 0.194
538.200, 0.199
538.300, 0.211
538.400, 0.213
538.500, 0.192
538.600, 0.193
538.700, 0.215
538.800, 0.201
538.900, 0.201
539.000, 0.227
539.100, 0.223
539.200, 0.240
539.300, 0.248
539.400, 0.223
539.500, 0.222
539.600, 0.222
539.700, 0.209
539.800, 0.198
539.900, 0.214
540.000, 0.222
540.100, 0.222
540.200, 0.230
540.300, 0.240
540.400, 0.242
540.500, 0.221
540.600, 0.240
540.700, 0.248
540.800, 0.258
540.900, 0.249
541.000, 0.231
541.100, 0.250
541.200, 0.239
541.300, 0.248
541.400, 0.230
541.500, 0.235
541.600, 0.239
541.700, 0.250
541.800, 0.252
541.900, 0.237
542.000, 0.227
542.100, 0.210
542.200, 0.225
542.300, 0.204
542.400, 0.231
542.500, 0.226
542.600, 0.216
542.700, 0.233
542.800, 0.219
542.900, 0.226
543.000, 0.218
543.100, 0.227
543.200, 0.246
543.300, 0.237
543.400, 0.241
543.500, 0.260
543.600, 0.236
543.700, 0.253
543.800, 0.225
543.900, 0.236
544.000, 0.237
544.100, 0.222
544.200, 0.240
544.300, 0.223
544.400, 0.219
544.500, 0.232
544.600, 0.232
544.700, 0.238
544.800, 0.240
544.900, 0.246
545.000, 0.220
545.100, 0.218
545.200, 0.220
545.300, 0.216
545.400, 0.220
545.500, 0.222
545.600, 0.242
545.700, 0.243
545.800, 0.236
545.900, 0.231
546.000, 0.243
546.100, 0.236
546.200, 0.235
546.300, 0.218
546.400, 0.239
546.500, 0.240
546.600, 0.232
546.700, 0.214
546.800, 0.225
546.900, 0.242
547.000, 0.224
547.100, 0.222
547.200, 0.202
547.300, 0.199
547.400, 0.216
547.500, 0.215
547.600, 0.228
547.700, 0.216
547.800, 0.215
547.900, 0.224
548.000, 0.220
548.100, 0.245
548.200, 0.233
548.300, 0.230
548.400, 0.243
548.500, 0.237
548.600, 0.230
548.700, 0.215
548.800, 0.242
548.900, 0.225
549.000, 0.221
549.100, 0.218
549.200, 0.209
549.300, 0.201
549.400, 0.191
549.500, 0.185
549.600, 0.203
549.700, 0.189
549.800, 0.213
549.900, 0.192
550.000, 0.218
550.100, 0.213
550.200, 0.208
550.300, 0.196
550.400, 0.172
550.500, 0.187
550.600, 0.202
550.700, 0.195
550.800, 0.214
550.900, 0.220
551.000, 0.201
551.100, 0.205
551.200, 0.210
551.300, 0.191
551.400, 0.188
551.500, 0.224
551.600, 0.217
551.700, 0.217
551.800, 0.221
551.900, 0.219
552.000, 0.209
552.100, 0.198
552.200, 0.203
552.300, 0.207
552.400, 0.206
552.500, 0.199
552.600, 0.197
552.700, 0.193
552.800, 0.197
552.900, 0.217
553.000, 0.191
553.100, 0.196
553.200, 0.212
553.300, 0.199
553.400, 0.197
553.500, 0.187
553.600, 0.207
553.700, 0.218
553.800, 0.227
553.900, 0.208
554.000, 0.225
554.100, 0.204
554.200, 0.233
554.300, 0.212
554.400, 0.210
554.500, 0.203
554.600, 0.211
554.700, 0.209
554.800, 0.210
554.900, 0.210
555.000, 0.226
555.100, 0.206
555.200, 0.211
555.300, 0.211
555.400, 0.199
555.500, 0.213
555.600, 0.199
555.700, 0.196
555.800, 0.191
555.900, 0.179
556.000, 0.195
556.100, 0.204
556.200, 0.198
556.300, 0.193
556.400, 0.182
556.500, 0.218
556.600, 0.197
556.700, 0.203
556.800, 0.201
556.900, 0.208
557.000, 0.180
557.100, 0.203
557.200, 0.197
557.300, 0.208
557.400, 0.200
557.500, 0.214
557.600, 0.194
557.700, 0.200
557.800, 0.220
557.900, 0.214
558.000, 0.201
558.100, 0.198
558.200, 0.219
558.300, 0.207
558.400, 0.205
558.500, 0.219
558.600, 0.206
558.700, 0.197
558.800, 0.218
558.900, 0.211
559.000, 0.217
559.100, 0.218
559.200, 0.220
559.300, 0.211
559.400, 0.226
559.500, 0.231
559.600, 0.222
559.700, 0.210
559.800, 0.221
559.900, 0.216
560.000, 0.243
560.100, 0.227
560.200, 0.204
560.300, 0.203
560.400, 0.205
560.500, 0.209
560.600, 0.221
560.700, 0.229
560.800, 0.232
560.900, 0.245
561.000, 0.214
561.100, 0.238
561.200, 0.245
561.300, 0.238
561.400, 0.261
561.500, 0.248
561.600, 0.240
561.700, 0.221
561.800, 0.224
561.900, 0.216
562.000, 0.215
562.100, 0.226
562.200, 0.221
562.300, 0.230
562.400, 0.240
562.500, 0.244
562.600, 0.240
562.700, 0.247
562.800, 0.233
562.900, 0.249
563.000, 0.247
563.100, 0.248
563.200, 0.253
563.300, 0.250
563.400, 0.243
563.500, 0.235
563.600, 0.242
563.700, 0.236
563.800, 0.259
563.900, 0.230
564.000, 0.255
564.100, 0.234
564.200, 0.251
564.300, 0.252
564.400, 0.221
564.500, 0.226
564.600, 0.251
564.700, 0.238
564.800, 0.222
564.900, 0.221
565.000, 0.231
565.100, 0.242
565.200, 0.240
565.300, 0.220
565.400, 0.216
565.500, 0.219
565.600, 0.248
565.700, 0.250
565.800, 0.218
565.900, 0.211
566.000, 0.218
566.100, 0.205
566.200, 0.212
566.300, 0.209
566.400, 0.204
566.500, 0.179
566.600, 0.204
566.700, 0.186
566.800, 0.200
566.900, 0.207
567.000, 0.237
567.100, 0.218
567.200, 0.214
567.300, 0.201
567.400, 0.217
567.500, 0.207
567.600, 0.210
567.700, 0.213
567.800, 0.204
567.900, 0.217
568.000, 0.209
568.100, 0.224
568.200, 0.221
568.300, 0.235
568.400, 0.256
568.500, 0.225
568.600, 0.216
568.700, 0.217
568.800, 0.221
568.900, 0.222
569.000, 0.215
569.100, 0.222
569.200, 0.203
569.300, 0.203
569.400, 0.211
569.500, 0.225
569.600, 0.223
569.700, 0.203
569.800, 0.206
569.900, 0.204
570.000, 0.196
570.100, 0.208
570.200, 0.220
570.300, 0.206
570.400, 0.210
570.500, 0.207
570.600, 0.218
570.700, 0.212
570.800, 0.219
570.900, 0.231
571.000, 0.217
571.100, 0.206
571.200, 0.227
571.300, 0.221
571.400, 0.235
571.500, 0.212
571.600, 0.222
571.700, 0.232
571.800, 0.242
571.900, 0.241
572.000, 0.233
572.100, 0.230
572.200, 0.248
572.300, 0.237
572.400, 0.243
572.500, 0.232
572.600, 0.226
572.700, 0.241
572.800, 0.234
572.900, 0.234
573.000, 0.247
573.100, 0.235
573.200, 0.257
573.300, 0.232
573.400, 0.234
573.500, 0.225
573.600, 0.207
573.700, 0.225
573.800, 0.218
573.900, 0.220
574.000, 0.207
574.100, 0.211
574.200, 0.205
574.300, 0.199
574.400, 0.225
574.500, 0.236
574.600, 0.232
574.700, 0.215
574.800, 0.229
574.900, 0.217
575.000, 0.227
575.100, 0.199
575.200, 0.196
575.300, 0.211
575.400, 0.208
575.500, 0.214
575.600, 0.200
575.700, 0.199
575.800, 0.198
575.900, 0.189
576.000, 0.182
576.100, 0.201
576.200, 0.182
576.300, 0.191
576.400, 0.198
576.500, 0.186
576.600, 0.201
576.700, 0.218
576.800, 0.220
576.900, 0.216
577.000, 0.213
577.100, 0.214
577.200, 0.225
577.300, 0.239
577.400, 0.244
577.500, 0.215
577.600, 0.198
577.700, 0.202
577.800, 0.224
577.900, 0.211
578.000, 0.223
578.100, 0.230
578.200, 0.212
578.300, 0.229
578.400, 0.215
578.500, 0.230
578.600, 0.229
578.700, 0.230
578.800, 0.201
578.900, 0.214
579.000, 0.202
579.100, 0.231
579.200, 0.232
579.300, 0.234
579.400, 0.226
579.500, 0.215
579.600, 0.221
579.700, 0.230
579.800, 0.241
579.900, 0.224
580.000, 0.203
580.100, 0.204
580.200, 0.231
580.300, 0.246
580.400, 0.225
580.500, 0.224
580.600, 0.217
580.700, 0.242
580.800, 0.235
580.900, 0.211
581.000, 0.227
581.100, 0.223
581.200, 0.237
581.300, 0.235
581.400, 0.226
581.500, 0.224
581.600, 0.209
581.700, 0.210
581.800, 0.221
581.900, 0.215
582.000, 0.222
582.100, 0.191
582.200, 0.227
582.300, 0.216
582.400, 0.199
582.500, 0.214
582.600, 0.220
582.700, 0.202
582.800, 0.226
582.900, 0.243
583.000, 0.242
583.100, 0.216
583.200, 0.198
583.300, 0.209
583.400, 0.211
583.500, 0.219
583.600, 0.229
583.700, 0.217
583.800, 0.233
583.900, 0.254
584.000, 0.226
584.100, 0.237
584.200, 0.227
584.300, 0.236
584.400, 0.217
584.500, 0.212
584.600, 0.202
584.700, 0.220
584.800, 0.193
584.900, 0.197
585.000, 0.189
585.100, 0.219
585.200, 0.221
585.300, 0.267
585.400, 0.255
585.500, 0.242
585.600, 0.255
585.700, 0.265
585.800, 0.255
585.900, 0.246
586.000, 0.217
586.100, 0.239
586.200, 0.231
586.300, 0.231
586.400, 0.212
586.500, 0.201
586.600, 0.215
586.700, 0.215
586.800, 0.213
586.900, 0.204
587.000, 0.192
587.100, 0.193
587.200, 0.193
587.300, 0.190
587.400, 0.204
587.500, 0.188
587.600, 0.204
587.700, 0.216
587.800, 0.221
587.900, 0.235
588.000, 0.242
588.100, 0.262
588.200, 0.250
588.300, 0.268
588.400, 0.238
588.500, 0.251
588.600, 0.234
588.700, 0.240
588.800, 0.230
588.900, 0.220
589.000, 0.210
589.100, 0.228
589.200, 0.216
589.300, 0.192
589.400, 0.214
589.500, 0.231
589.600, 0.233
589.700, 0.215
589.800, 0.196
589.900, 0.211
590.000, 0.207
590.100, 0.211
590.200, 0.215
590.300, 0.195
590.400, 0.215
590.500, 0.204
590.600, 0.216
590.700, 0.216
590.800, 0.236
590.900, 0.207
591.000, 0.218
591.100, 0.217
591.200, 0.202
591.300, 0.228
591.400, 0.231
591.500, 0.210
591.600, 0.221
591.700, 0.233
591.800, 0.207
591.900, 0.208
592.000, 0.240
592.100, 0.234
592.200, 0.221
592.300, 0.208
592.400, 0.220
592.500, 0.215
592.600, 0.201
592.700, 0.203
592.800, 0.206
592.900, 0.189
593.000, 0.209
593.100, 0.199
593.200, 0.208
593.300, 0.210
593.400, 0.209
593.500, 0.220
593.600, 0.197
593.700, 0.224
593.800, 0.219
593.900, 0.227
594.000, 0.197
594.100, 0.201
594.200, 0.207
594.300, 0.217
594.400, 0.221
594.500, 0.221
594.600, 0.227
594.700, 0.213
594.800, 0.222
594.900, 0.208
595.000, 0.229
595.100, 0.206
595.200, 0.204
595.300, 0.207
595.400, 0.212
595.500, 0.213
595.600, 0.211
595.700, 0.200
595.800, 0.191
595.900, 0.215
596.000, 0.201
596.100, 0.201
596.200, 0.201
596.300, 0.199
596.400, 0.198
596.500, 0.190
596.600, 0.206
596.700, 0.197
596.800, 0.195
596.900, 0.183
597.000, 0.172
597.100, 0.184
597.200, 0.188
597.300, 0.213
597.400, 0.213
597.500, 0.205
597.600, 0.211
597.700, 0.202
597.800, 0.216
597.900, 0.225
598.000, 0.232
598.100, 0.242
598.200, 0.224
598.300, 0.217
598.400, 0.222
598.500, 0.209
598.600, 0.211
598.700, 0.218
598.800, 0.215
598.900, 0.232
599.000, 0.211
599.100, 0.219
599.200, 0.249
599.300, 0.227
599.400, 0.237
599.500, 0.228
599.600, 0.244
599.700, 0.220
599.800, 0.246
599.900, 0.217
600.000, 0.213
600.100, 0.227
600.200, 0.230
600.300, 0.196
600.400, 0.212
600.500, 0.201
600.600, 0.200
600.700, 0.227
600.800, 0.207
600.900, 0.225
601.000, 0.223
601.100, 0.245
601.200, 0.234
601.300, 0.254
601.400, 0.234
601.500, 0.221
601.600, 0.233
601.700, 0.238
601.800, 0.210
601.900, 0.205
602.000, 0.218
602.100, 0.217
602.200, 0.208
602.300, 0.203
602.400, 0.207
602.500, 0.199
602.600, 0.216
602.700, 0.210
602.800, 0.252
602.900, 0.229
603.000, 0.230
603.100, 0.231
603.200, 0.248
603.300, 0.222
603.400, 0.203
603.500, 0.207
603.600, 0.222
603.700, 0.232
603.800, 0.235
603.900, 0.233
604.000, 0.239
604.100, 0.229
604.200, 0.227
604.300, 0.215
604.400, 0.229
604.500, 0.234
604.600, 0.216
604.700, 0.236
604.800, 0.234
604.900, 0.218
605.000, 0.217
605.100, 0.246
605.200, 0.213
605.300, 0.202
605.400, 0.209
605.500, 0.210
605.600, 0.219
605.700, 0.221
605.800, 0.219
605.900, 0.208
606.000, 0.196
606.100, 0.193
606.200, 0.199
606.300, 0.202
606.400, 0.192
606.500, 0.182
606.600, 0.198
606.700, 0.199
606.800, 0.199
606.900, 0.183
607.000, 0.195
607.100, 0.178
607.200, 0.179
607.300, 0.189
607.400, 0.220
607.500, 0.196
607.600, 0.194
607.700, 0.190
607.800, 0.173
607.900, 0.187
608.000, 0.178
608.100, 0.199
608.200, 0.173
608.300, 0.177
608.400, 0.181
608.500, 0.187
608.600, 0.188
608.700, 0.176
608.800, 0.176
608.900, 0.195
609.000, 0.211
609.100, 0.203
609.200, 0.198
609.300, 0.211
609.400, 0.200
609.500, 0.207
609.600, 0.181
609.700, 0.175
609.800, 0.195
609.900, 0.231
610.000, 0.227
610.100, 0.236
610.200, 0.234
610.300, 0.217
610.400, 0.218
610.500, 0.209
610.600, 0.192
610.700, 0.220
610.800, 0.239
610.900, 0.229
611.000, 0.245
611.100, 0.219
611.200, 0.257
611.300, 0.246
611.400, 0.226
611.500, 0.212
611.600, 0.189
611.700, 0.220
611.800, 0.198
611.900, 0.200
612.000, 0.243
612.100, 0.234
612.200, 0.230
612.300, 0.211
612.400, 0.200
612.500, 0.197
612.600, 0.220
612.700, 0.223
612.800, 0.214
612.900, 0.241
613.000, 0.220
613.100, 0.223
613.200, 0.208
613.300, 0.213
613.400, 0.234
613.500, 0.221
613.600, 0.222
613.700, 0.215
613.800, 0.214
613.900, 0.194
614.000, 0.212
614.100, 0.219
614.200, 0.234
614.300, 0.217
614.400, 0.217
614.500, 0.234
614.600, 0.219
614.700, 0.216
614.800, 0.215
614.900, 0.207
615.000, 0.194
615.100, 0.231
615.200, 0.198
615.300, 0.210
615.400, 0.218
615.500, 0.240
615.600, 0.285
615.700, 0.272
615.800, 0.283
615.900, 0.249
616.000, 0.235
616.100, 0.242
616.200, 0.246
616.300, 0.247
616.400, 0.217
616.500, 0.221
616.600, 0.222
616.700, 0.218
616.800, 0.215
616.900, 0.217
617.000, 0.238
617.100, 0.247
617.200, 0.215
617.300, 0.218
617.400, 0.210
617.500, 0.211
617.600, 0.221
617.700, 0.205
617.800, 0.207
617.900, 0.228
618.000, 0.208
618.100, 0.211
618.200, 0.207
618.300, 0.199
618.400, 0.195
618.500, 0.199
618.600, 0.221
618.700, 0.195
618.800, 0.196
618.900, 0.205
619.000, 0.230
619.100, 0.210
619.200, 0.218
619.300, 0.204
619.400, 0.203
619.500, 0.206
619.600, 0.213
619.700, 0.237
619.800, 0.219
619.900, 0.196
620.000, 0.197
620.100, 0.213
620.200, 0.224
620.300, 0.202
620.400, 0.205
620.500, 0.211
620.600, 0.229
620.700, 0.232
620.800, 0.220
620.900, 0.229
621.000, 0.224
621.100, 0.203
621.200, 0.217
621.300, 0.211
621.400, 0.208
621.500, 0.199
621.600, 0.202
621.700, 0.208
621.800, 0.196
621.900, 0.212
622.000, 0.217
622.100, 0.198
622.200, 0.205
622.300, 0.200
622.400, 0.223
622.500, 0.226
622.600, 0.201
622.700, 0.199
622.800, 0.222
622.900, 0.216
623.000, 0.221
623.100, 0.198
623.200, 0.199
623.300, 0.203
623.400, 0.191
623.500, 0.186
623.600, 0.195
623.700, 0.191
623.800, 0.188
623.900, 0.186
624.000, 0.205
624.100, 0.196
624.200, 0.191
624.300, 0.166
624.400, 0.164
624.500, 0.186
624.600, 0.179
624.700, 0.185
624.800, 0.199
624.900, 0.207
625.000, 0.180
625.100, 0.175
625.200, 0.179
625.300, 0.173
625.400, 0.181
625.500, 0.156
625.600, 0.175
625.700, 0.171
625.800, 0.168
625.900, 0.173
626.000, 0.182
626.100, 0.176
626.200, 0.173
626.300, 0.161
626.400, 0.170
626.500, 0.167
626.600, 0.166
626.700, 0.157
626.800, 0.170
626.900, 0.154
627.000, 0.149
627.100, 0.171
627.200, 0.167
627.300, 0.169
627.400, 0.158
627.500, 0.160
627.600, 0.172
627.700, 0.183
627.800, 0.179
627.900, 0.166
628.000, 0.166
628.100, 0.164
628.200, 0.153
628.300, 0.158
628.400, 0.171
628.500, 0.164
628.600, 0.167
628.700, 0.167
628.800, 0.163
628.900, 0.184
629.000, 0.164
629.100, 0.174
629.200, 0.172
629.300, 0.166
629.400, 0.169
629.500, 0.181
629.600, 0.184
629.700, 0.198
629.800, 0.214
629.900, 0.232
630.000, 0.192
630.100, 0.221
630.200, 0.219
630.300, 0.201
630.400, 0.214
630.500, 0.195
630.600, 0.209
630.700, 0.221
630.800, 0.215
630.900, 0.188
631.000, 0.229
631.100, 0.224
631.200, 0.215
631.300, 0.232
631.400, 0.217
631.500, 0.210
631.600, 0.218
631.700, 0.187
631.800, 0.192
631.900, 0.179
632.000, 0.192
632.100, 0.203
632.200, 0.211
632.300, 0.211
632.400, 0.213
632.500, 0.207
632.600, 0.209
632.700, 0.198
632.800, 0.190
632.900, 0.204
633.000, 0.209
633.100, 0.196
633.200, 0.204
633.300, 0.210
633.400, 0.213
633.500, 0.214
633.600, 0.190
633.700, 0.186
633.800, 0.169
633.900, 0.160
634.000, 0.162
634.100, 0.165
634.200, 0.174
634.300, 0.176
634.400, 0.172
634.500, 0.174
634.600, 0.167
634.700, 0.173
634.800, 0.167
634.900, 0.177
635.000, 0.171
635.100, 0.161
635.200, 0.177
635.300, 0.178
635.400, 0.185
635.500, 0.183
635.600, 0.167
635.700, 0.159
635.800, 0.177
635.900, 0.153
636.000, 0.156
636.100, 0.145
636.200, 0.159
636.300, 0.182
636.400, 0.179
636.500, 0.171
636.600, 0.180
636.700, 0.173
636.800, 0.172
636.900, 0.185
637.000, 0.177
637.100, 0.173
637.200, 0.170
637.300, 0.173
637.400, 0.176
637.500, 0.166
637.600, 0.183
637.700, 0.175
637.800, 0.180
637.900, 0.197
638.000, 0.199
638.100, 0.202
638.200, 0.197
638.300, 0.212
638.400, 0.218
638.500, 0.217
638.600, 0.223
638.700, 0.232
638.800, 0.232
638.900, 0.217
639.000, 0.231
639.100, 0.234
639.200, 0.211
639.300, 0.216
639.400, 0.208
639.500, 0.216
639.600, 0.216
639.700, 0.211
639.800, 0.216
639.900, 0.229
640.000, 0.206
640.100, 0.194
640.200, 0.212
640.300, 0.190
640.400, 0.180
640.500, 0.179
640.600, 0.206
640.700, 0.218
640.800, 0.173
640.900, 0.181
641.000, 0.202
641.100, 0.211
641.200, 0.222
641.300, 0.189
641.400, 0.186
641.500, 0.189
641.600, 0.182
641.700, 0.173
641.800, 0.191
641.900, 0.177
642.000, 0.181
642.100, 0.164
642.200, 0.162
642.300, 0.171
642.400, 0.175
642.500, 0.166
642.600, 0.162
642.700, 0.174
642.800, 0.178
642.900, 0.160
643.000, 0.142
643.100, 0.162
643.200, 0.165
643.300, 0.147
643.400, 0.163
643.500, 0.142
643.600, 0.145
643.700, 0.154
643.800, 0.156
643.900, 0.183
644.000, 0.176
644.100, 0.168
644.200, 0.169
644.300, 0.172
644.400, 0.157
644.500, 0.162
644.600, 0.174
644.700, 0.180
644.800, 0.168
644.900, 0.166
645.000, 0.175
645.100, 0.179
645.200, 0.167
645.300, 0.164
645.400, 0.160
645.500, 0.174
645.600, 0.166
645.700, 0.169
645.800, 0.168
645.900, 0.169
646.000, 0.181
646.100, 0.161
646.200, 0.163
646.300, 0.164
646.400, 0.161
646.500, 0.158
646.600, 0.152
646.700, 0.167
646.800, 0.140
646.900, 0.145
647.000, 0.158
647.100, 0.160
647.200, 0.158
647.300, 0.165
647.400, 0.168
647.500, 0.155
647.600, 0.172
647.700, 0.188
647.800, 0.189
647.900, 0.191
648.000, 0.186
648.100, 0.173
648.200, 0.183
648.300, 0.181
648.400, 0.153
648.500, 0.153
648.600, 0.181
648.700, 0.162
648.800, 0.161
648.900, 0.183
649.000, 0.174
649.100, 0.175
649.200, 0.177
649.300, 0.192
649.400, 0.188
649.500, 0.188
649.600, 0.163
649.700, 0.188
649.800, 0.182
649.900, 0.181
650.000, 0.173
650.100, 0.172
650.200, 0.182
650.300, 0.163
650.400, 0.178
650.500, 0.182
650.600, 0.181
650.700, 0.194
650.800, 0.183
650.900, 0.186
651.000, 0.170
651.100, 0.187
651.200, 0.168
651.300, 0.167
651.400, 0.188
651.500, 0.151
651.600, 0.153
651.700, 0.165
651.800, 0.154
651.900, 0.193
652.000, 0.177
652.100, 0.185
652.200, 0.176
652.300, 0.184
652.400, 0.190
652.500, 0.176
652.600, 0.162
652.700, 0.174
652.800, 0.176
652.900, 0.173
653.000, 0.178
653.100, 0.181
653.200, 0.183
653.300, 0.192
653.400, 0.174
653.500, 0.173
653.600, 0.181
653.700, 0.168
653.800, 0.169
653.900, 0.164
654.000, 0.175
654.100, 0.163
654.200, 0.165
654.300, 0.186
654.400, 0.167
654.500, 0.187
654.600, 0.211
654.700, 0.205
654.800, 0.213
654.900, 0.226
655.000, 0.220
655.100, 0.234
655.200, 0.239
655.300, 0.253
655.400, 0.237
655.500, 0.215
655.600, 0.225
655.700, 0.219
655.800, 0.197
655.900, 0.192
656.000, 0.177
656.100, 0.175
656.200, 0.178
656.300, 0.174
656.400, 0.197
656.500, 0.195
656.600, 0.205
656.700, 0.188
656.800, 0.184
656.900, 0.203
657.000, 0.184
657.100, 0.194
657.200, 0.227
657.300, 0.226
657.400, 0.201
657.500, 0.176
657.600, 0.174
657.700, 0.182
657.800, 0.194
657.900, 0.201
658.000, 0.196
658.100, 0.211
658.200, 0.211
658.300, 0.180
658.400, 0.188
658.500, 0.173
658.600, 0.188
658.700, 0.178
658.800, 0.181
658.900, 0.159
659.000, 0.148
659.100, 0.144
659.200, 0.158
659.300, 0.173
659.400, 0.153
659.500, 0.162
659.600, 0.163
659.700, 0.159
659.800, 0.182
659.900, 0.171
660.000, 0.167
660.100, 0.180
660.200, 0.178
660.300, 0.171
660.400, 0.172
660.500, 0.175
660.600, 0.160
660.700, 0.163
660.800, 0.174
660.900, 0.178
661.000, 0.165
661.100, 0.183
661.200, 0.168
661.300, 0.177
661.400, 0.160
661.500, 0.158
661.600, 0.158
661.700, 0.166
661.800, 0.161
661.900, 0.177
662.000, 0.189
662.100, 0.203
662.200, 0.168
662.300, 0.178
662.400, 0.175
662.500, 0.170
662.600, 0.170
662.700, 0.182
662.800, 0.207
662.900, 0.182
663.000, 0.194
663.100, 0.175
663.200, 0.179
663.300, 0.178
663.400, 0.202
663.500, 0.205
663.600, 0.197
663.700, 0.196
663.800, 0.200
663.900, 0.184
664.000, 0.188
664.100, 0.205
664.200, 0.185
664.300, 0.194
664.400, 0.186
664.500, 0.171
664.600, 0.185
664.700, 0.188
664.800, 0.186
664.900, 0.192
665.000, 0.216
665.100, 0.200
665.200, 0.194
665.300, 0.184
665.400, 0.183
665.500, 0.183
665.600, 0.185
665.700, 0.188
665.800, 0.227
665.900, 0.210
666.000, 0.203
666.100, 0.191
666.200, 0.185
666.300, 0.191
666.400, 0.188
666.500, 0.197
666.600, 0.200
666.700, 0.191
666.800, 0.183
666.900, 0.188
667.000, 0.172
667.100, 0.174
667.200, 0.175
667.300, 0.188
667.400, 0.189
667.500, 0.173
667.600, 0.174
667.700, 0.174
667.800, 0.175
667.900, 0.176
668.000, 0.164
668.100, 0.171
668.200, 0.171
668.300, 0.195
668.400, 0.170
668.500, 0.193
668.600, 0.179
668.700, 0.188
668.800, 0.173
668.900, 0.177
669.000, 0.178
669.100, 0.180
669.200, 0.167
669.300, 0.170
669.400, 0.175
669.500, 0.179
669.600, 0.176
669.700, 0.168
669.800, 0.152
669.900, 0.176
670.000, 0.178
670.100, 0.167
670.200, 0.173
670.300, 0.174
670.400, 0.169
670.500, 0.162
670.600, 0.172
670.700, 0.174
670.800, 0.172
670.900, 0.169
671.000, 0.169
671.100, 0.174
671.200, 0.169
671.300, 0.170
671.400, 0.180
671.500, 0.181
671.600, 0.169
671.700, 0.192
671.800, 0.196
671.900, 0.193
672.000, 0.176
672.100, 0.173
672.200, 0.163
672.300, 0.176
672.400, 0.202
672.500, 0.194
672.600, 0.173
672.700, 0.179
672.800, 0.163
672.900, 0.177
673.000, 0.198
673.100, 0.188
673.200, 0.191
673.300, 0.182
673.400, 0.209
673.500, 0.184
673.600, 0.197
673.700, 0.188
673.800, 0.199
673.900, 0.176
674.000, 0.211
674.100, 0.185
674.200, 0.231
674.300, 0.210
674.400, 0.197
674.500, 0.180
674.600, 0.175
674.700, 0.186
674.800, 0.192
674.900, 0.205
675.000, 0.209
675.100, 0.193
675.200, 0.190
675.300, 0.186
675.400, 0.190
675.500, 0.201
675.600, 0.215
675.700, 0.202
675.800, 0.207
675.900, 0.214
676.000, 0.220
676.100, 0.205
676.200, 0.201
676.300, 0.215
676.400, 0.234
676.500, 0.207
676.600, 0.198
676.700, 0.193
676.800, 0.189
676.900, 0.178
677.000, 0.179
677.100, 0.181
677.200, 0.175
677.300, 0.222
677.400, 0.195
677.500, 0.217
677.600, 0.205
677.700, 0.175
677.800, 0.192
677.900, 0.196
678.000, 0.198
678.100, 0.207
678.200, 0.190
678.300, 0.194
678.400, 0.213
678.500, 0.196
678.600, 0.199
678.700, 0.184
678.800, 0.208
678.900, 0.203
679.000, 0.192
679.100, 0.205
679.200, 0.201
679.300, 0.202
679.400, 0.184
679.500, 0.184
679.600, 0.171
679.700, 0.176
679.800, 0.166
679.900, 0.163
680.000, 0.191
680.100, 0.188
680.200, 0.172
680.300, 0.166
680.400, 0.178
680.500, 0.163
680.600, 0.177
680.700, 0.193
680.800, 0.207
680.900, 0.174
681.000, 0.188
681.100, 0.204
681.200, 0.204
681.300, 0.204
681.400, 0.209
681.500, 0.264
681.600, 0.267
681.700, 0.225
681.800, 0.281
681.900, 0.251
682.000, 0.260
682.100, 0.261
682.200, 0.226
682.300, 0.232
682.400, 0.223
682.500, 0.223
682.600, 0.200
682.700, 0.224
682.800, 0.200
682.900, 0.190
683.000, 0.215
683.100, 0.207
683.200, 0.212
683.300, 0.205
683.400, 0.212
683.500, 0.215
683.600, 0.196
683.700, 0.187
683.800, 0.224
683.900, 0.224
684.000, 0.214
684.100, 0.208
684.200, 0.197
684.300, 0.202
684.400, 0.206
684.500, 0.215
684.600, 0.218
684.700, 0.226
684.800, 0.193
684.900, 0.199
685.000, 0.188
685.100, 0.213
685.200, 0.207
685.300, 0.201
685.400, 0.195
685.500, 0.199
685.600, 0.200
685.700, 0.193
685.800, 0.211
685.900, 0.231
686.000, 0.218
686.100, 0.214
686.200, 0.203
686.300, 0.205
686.400, 0.235
686.500, 0.213
686.600, 0.211
686.700, 0.226
686.800, 0.202
686.900, 0.195
687.000, 0.187
687.100, 0.206
687.200, 0.203
687.300, 0.191
687.400, 0.186
687.500, 0.187
687.600, 0.189
687.700, 0.200
687.800, 0.228
687.900, 0.205
688.000, 0.216
688.100, 0.211
688.200, 0.207
688.300, 0.187
688.400, 0.191
688.500, 0.193
688.600, 0.188
688.700, 0.182
688.800, 0.181
688.900, 0.178
689.000, 0.191
689.100, 0.153
689.200, 0.154
689.300, 0.167
689.400, 0.170
689.500, 0.158
689.600, 0.182
689.700, 0.165
689.800, 0.164
689.900, 0.168
690.000, 0.162
690.100, 0.165
690.200, 0.168
690.300, 0.172
690.400, 0.157
690.500, 0.168
690.600, 0.181
690.700, 0.160
690.800, 0.164
690.900, 0.160
691.000, 0.180
691.100, 0.172
691.200, 0.175
691.300, 0.157
691.400, 0.160
691.500, 0.169
691.600, 0.176
691.700, 0.166
691.800, 0.159
691.900, 0.160
692.000, 0.163
692.100, 0.171
692.200, 0.155
692.300, 0.165
692.400, 0.169
692.500, 0.176
692.600, 0.177
692.700, 0.173
692.800, 0.171
692.900, 0.177
693.000, 0.171
693.100, 0.168
693.200, 0.190
693.300, 0.184
693.400, 0.182
693.500, 0.175
693.600, 0.184
693.700, 0.188
693.800, 0.196
693.900, 0.187
694.000, 0.191
694.100, 0.193
694.200, 0.216
694.300, 0.206
694.400, 0.192
694.500, 0.186
694.600, 0.192
694.700, 0.199
694.800, 0.204
694.900, 0.204
695.000, 0.190
695.100, 0.194
695.200, 0.216
695.300, 0.223
695.400, 0.221
695.500, 0.211
695.600, 0.237
695.700, 0.235
695.800, 0.250
695.900, 0.227
696.000, 0.202
696.100, 0.199
696.200, 0.217
696.300, 0.204
696.400, 0.213
696.500, 0.235
696.600, 0.212
696.700, 0.229
696.800, 0.273
696.900, 0.220
697.000, 0.235
697.100, 0.232
697.200, 0.199
697.300, 0.208
697.400, 0.193
697.500, 0.196
697.600, 0.224
697.700, 0.225
697.800, 0.241
697.900, 0.251
698.000, 0.237
698.100, 0.217
698.200, 0.227
698.300, 0.204
698.400, 0.197
698.500, 0.185
698.600, 0.210
698.700, 0.228
698.800, 0.215
698.900, 0.220
699.000, 0.225
699.100, 0.234
699.200, 0.250
699.300, 0.227
699.400, 0.266
699.500, 0.257
699.600, 0.257
699.700, 0.220
699.800, 0.218
699.900, 0.208
700.000, 0.218
700.100, 0.233
700.200, 0.210
700.300, 0.222
700.400, 0.234
700.500, 0.218
700.600, 0.228
700.700, 0.207
700.800, 0.205
700.900, 0.207
701.000, 0.197
701.100, 0.184
701.200, 0.183
701.300, 0.198
701.400, 0.196
701.500, 0.189
701.600, 0.187
701.700, 0.188
701.800, 0.216
701.900, 0.189
702.000, 0.209
702.100, 0.203
702.200, 0.212
702.300, 0.205
702.400, 0.195
702.500, 0.200
702.600, 0.208
702.700, 0.208
702.800, 0.218
702.900, 0.194
703.000, 0.192
703.100, 0.203
703.200, 0.201
703.300, 0.208
703.400, 0.205
703.500, 0.203
703.600, 0.199
703.700, 0.204
703.800, 0.217
703.900, 0.203
704.000, 0.195
704.100, 0.210
704.200, 0.198
704.300, 0.210
704.400, 0.194
704.500, 0.191
704.600, 0.208
704.700, 0.210
704.800, 0.200
704.900, 0.220
705.000, 0.216
705.100, 0.215
705.200, 0.195
705.300, 0.211
705.400, 0.210
705.500, 0.206
705.600, 0.209
705.700, 0.212
705.800, 0.206
705.900, 0.222
706.000, 0.217
706.100, 0.217
706.200, 0.224
706.300, 0.232
706.400, 0.222
706.500, 0.209
706.600, 0.201
706.700, 0.194
706.800, 0.185
706.900, 0.211
707.000, 0.211
707.100, 0.229
707.200, 0.212
707.300, 0.195
707.400, 0.203
707.500, 0.212
707.600, 0.204
707.700, 0.207
707.800, 0.203
707.900, 0.186
708.000, 0.185
708.100, 0.192
708.200, 0.205
708.300, 0.210
708.400, 0.201
708.500, 0.210
708.600, 0.208
708.700, 0.223
708.800, 0.226
708.900, 0.243
709.000, 0.227
709.100, 0.226
709.200, 0.217
709.300, 0.228
709.400, 0.218
709.500, 0.201
709.600, 0.198
709.700, 0.202
709.800, 0.235
709.900, 0.210
710.000, 0.197
710.100, 0.238
710.200, 0.224
710.300, 0.227
710.400, 0.221
710.500, 0.216
710.600, 0.227
710.700, 0.243
710.800, 0.228
710.900, 0.242
711.000, 0.275
711.100, 0.257
711.200, 0.262
711.300, 0.257
711.400, 0.249
711.500, 0.246
711.600, 0.248
711.700, 0.259
711.800, 0.255
711.900, 0.223
712.000, 0.220
712.100, 0.235
712.200, 0.220
712.300, 0.219
712.400, 0.252
712.500, 0.256
712.600, 0.218
712.700, 0.215
712.800, 0.197
712.900, 0.206
713.000, 0.231
713.100, 0.217
713.200, 0.243
713.300, 0.232
713.400, 0.240
713.500, 0.248
713.600, 0.236
713.700, 0.211
713.800, 0.212
713.900, 0.211
714.000, 0.212
714.100, 0.220
714.200, 0.195
714.300, 0.211
714.400, 0.204
714.500, 0.210
714.600, 0.221
714.700, 0.205
714.800, 0.199
714.900, 0.217
715.000, 0.206
715.100, 0.230
715.200, 0.208
715.300, 0.211
715.400, 0.208
715.500, 0.200
715.600, 0.188
715.700, 0.188
715.800, 0.197
715.900, 0.190
716.000, 0.198
716.100, 0.188
716.200, 0.199
716.300, 0.187
716.400, 0.180
716.500, 0.180
716.600, 0.172
716.700, 0.181
716.800, 0.207
716.900, 0.190
717.000, 0.191
717.100, 0.216
717.200, 0.202
717.300, 0.210
717.400, 0.224
717.500, 0.207
717.600, 0.208
717.700, 0.210
717.800, 0.213
717.900, 0.203
718.000, 0.206
718.100, 0.204
718.200, 0.210
718.300, 0.220
718.400, 0.194
718.500, 0.212
718.600, 0.209
718.700, 0.197
718.800, 0.218
718.900, 0.214
719.000, 0.222
719.100, 0.242
719.200, 0.220
719.300, 0.235
719.400, 0.235
719.500, 0.225
719.600, 0.220
719.700, 0.222
719.800, 0.229
719.900, 0.224
720.000, 0.236
720.100, 0.243
720.200, 0.220
720.300, 0.252
720.400, 0.233
720.500, 0.216
720.600, 0.218
720.700, 0.224
720.800, 0.249
720.900, 0.242
721.000, 0.230
721.100, 0.232
721.200, 0.217
721.300, 0.232
721.400, 0.237
721.500, 0.215
721.600, 0.230
721.700, 0.234
721.800, 0.226
721.900, 0.228
722.000, 0.228
722.100, 0.223
722.200, 0.221
722.300, 0.236
722.400, 0.220
722.500, 0.235
722.600, 0.217
722.700, 0.226
722.800, 0.237
722.900, 0.216
723.000, 0.211
723.100, 0.192
723.200, 0.193
723.300, 0.204
723.400, 0.180
723.500, 0.185
723.600, 0.194
723.700, 0.212
723.800, 0.219
723.900, 0.212
724.000, 0.222
724.100, 0.197
724.200, 0.192
724.300, 0.194
724.400, 0.205
724.500, 0.197
724.600, 0.226
724.700, 0.210
724.800, 0.211
724.900, 0.201
725.000, 0.196
725.100, 0.200
725.200, 0.184
725.300, 0.192
725.400, 0.196
725.500, 0.181
725.600, 0.184
725.700, 0.197
725.800, 0.193
725.900, 0.187
726.000, 0.216
726.100, 0.222
726.200, 0.239
726.300, 0.212
726.400, 0.237
726.500, 0.218
726.600, 0.219
726.700, 0.208
726.800, 0.218
726.900, 0.242
727.000, 0.256
727.100, 0.234
727.200, 0.236
727.300, 0.234
727.400, 0.216
727.500, 0.222
727.600, 0.223
727.700, 0.221
727.800, 0.200
727.900, 0.197
728.000, 0.212
728.100, 0.212
728.200, 0.199
728.300, 0.205
728.400, 0.195
728.500, 0.200
728.600, 0.224
728.700, 0.207
728.800, 0.205
728.900, 0.215
729.000, 0.199
729.100, 0.185
729.200, 0.200
729.300, 0.208
729.400, 0.212
729.500, 0.237
729.600, 0.225
729.700, 0.230
729.800, 0.211
729.900, 0.219
730.000, 0.211
730.100, 0.214
730.200, 0.225
730.300, 0.244
730.400, 0.225
730.500, 0.235
730.600, 0.214
730.700, 0.215
730.800, 0.232
730.900, 0.243
731.000, 0.234
731.100, 0.244
731.200, 0.245
731.300, 0.244
731.400, 0.248
731.500, 0.225
731.600, 0.227
731.700, 0.239
731.800, 0.192
731.900, 0.201
732.000, 0.225
732.100, 0.215
732.200, 0.205
732.300, 0.198
732.400, 0.179
732.500, 0.186
732.600, 0.191
732.700, 0.197
732.800, 0.186
732.900, 0.206
733.000, 0.219
733.100, 0.242
733.200, 0.216
733.300, 0.228
733.400, 0.217
733.500, 0.198
733.600, 0.207
733.700, 0.210
733.800, 0.230
733.900, 0.230
734.000, 0.189
734.100, 0.230
734.200, 0.221
734.300, 0.187
734.400, 0.214
734.500, 0.211
734.600, 0.195
734.700, 0.193
734.800, 0.201
734.900, 0.189
735.000, 0.200
735.100, 0.207
735.200, 0.199
735.300, 0.201
735.400, 0.219
735.500, 0.221
735.600, 0.222
735.700, 0.207
735.800, 0.224
735.900, 0.211
736.000, 0.208
736.100, 0.189
736.200, 0.191
736.300, 0.188
736.400, 0.187
736.500, 0.197
736.600, 0.196
736.700, 0.183
736.800, 0.215
736.900, 0.189
737.000, 0.188
737.100, 0.200
737.200, 0.209
737.300, 0.201
737.400, 0.200
737.500, 0.195
737.600, 0.192
737.700, 0.193
737.800, 0.192
737.900, 0.196
738.000, 0.192
738.100, 0.187
738.200, 0.175
738.300, 0.177
738.400, 0.176
738.500, 0.197
738.600, 0.205
738.700, 0.228
738.800, 0.213
738.900, 0.192
739.000, 0.193
739.100, 0.200
739.200, 0.207
739.300, 0.198
739.400, 0.203
739.500, 0.214
739.600, 0.216
739.700, 0.227
739.800, 0.218
739.900, 0.214
740.000, 0.194
740.100, 0.203
740.200, 0.208
740.300, 0.200
740.400, 0.199
740.500, 0.193
740.600, 0.191
740.700, 0.202
740.800, 0.220
740.900, 0.231
741.000, 0.197
741.100, 0.206
741.200, 0.217
741.300, 0.204
741.400, 0.215
741.500, 0.218
741.600, 0.217
741.700, 0.234
741.800, 0.229
741.900, 0.249
742.000, 0.219
742.100, 0.202
742.200, 0.220
742.300, 0.229
742.400, 0.208
742.500, 0.231
742.600, 0.200
742.700, 0.214
742.800, 0.207
742.900, 0.214
743.000, 0.202
743.100, 0.220
743.200, 0.200
743.300, 0.197
743.400, 0.203
743.500, 0.198
743.600, 0.189
743.700, 0.201
743.800, 0.200
743.900, 0.201
744.000, 0.213
744.100, 0.218
744.200, 0.228
744.300, 0.228
744.400, 0.190
744.500, 0.199
744.600, 0.217
744.700, 0.203
744.800, 0.199
744.900, 0.198
745.000, 0.217
745.100, 0.217
745.200, 0.196
745.300, 0.215
745.400, 0.225
745.500, 0.239
745.600, 0.215
745.700, 0.202
745.800, 0.212
745.900, 0.215
746.000, 0.234
746.100, 0.225
746.200, 0.213
746.300, 0.210
746.400, 0.189
746.500, 0.200
746.600, 0.214
746.700, 0.178
746.800, 0.185
746.900, 0.200
747.000, 0.180
747.100, 0.210
747.200, 0.211
747.300, 0.214
747.400, 0.219
747.500, 0.219
747.600, 0.234
747.700, 0.234
747.800, 0.224
747.900, 0.210
748.000, 0.213
748.100, 0.200
748.200, 0.221
748.300, 0.209
748.400, 0.198
748.500, 0.200
748.600, 0.196
748.700, 0.195
748.800, 0.212
748.900, 0.234
749.000, 0.227
749.100, 0.218
749.200, 0.205
749.300, 0.217
749.400, 0.202
749.500, 0.234
749.600, 0.209
749.700, 0.234
749.800, 0.259
749.900, 0.245
750.000, 0.241
750.100, 0.210
750.200, 0.209
750.300, 0.200
750.400, 0.226
750.500, 0.195
750.600, 0.179
750.700, 0.179
750.800, 0.196
750.900, 0.209
751.000, 0.189
751.100, 0.185
751.200, 0.177
751.300, 0.189
751.400, 0.162
751.500, 0.163
751.600, 0.163
751.700, 0.170
751.800, 0.174
751.900, 0.180
752.000, 0.203
752.100, 0.191
752.200, 0.195
752.300, 0.169
752.400, 0.174
752.500, 0.196
752.600, 0.195
752.700, 0.186
752.800, 0.162
752.900, 0.151
753.000, 0.150
753.100, 0.152
753.200, 0.162
753.300, 0.168
753.400, 0.160
753.500, 0.167
753.600, 0.188
753.700, 0.187
753.800, 0.195
753.900, 0.172
754.000, 0.198
754.100, 0.186
754.200, 0.164
754.300, 0.166
754.400, 0.172
754.500, 0.175
754.600, 0.159
754.700, 0.183
754.800, 0.175
754.900, 0.167
755.000, 0.213
755.100, 0.228
755.200, 0.229
755.300, 0.219
755.400, 0.250
755.500, 0.233
755.600, 0.219
755.700, 0.226
755.800, 0.242
755.900, 0.261
756.000, 0.241
756.100, 0.219
756.200, 0.252
756.300, 0.236
756.400, 0.211
756.500, 0.207
756.600, 0.226
756.700, 0.239
756.800, 0.242
756.900, 0.246
757.000, 0.244
757.100, 0.262
757.200, 0.265
757.300, 0.236
757.400, 0.220
757.500, 0.227
757.600, 0.231
757.700, 0.223
757.800, 0.265
757.900, 0.248
758.000, 0.242
758.100, 0.264
758.200, 0.249
758.300, 0.243
758.400, 0.202
758.500, 0.210
758.600, 0.218
758.700, 0.200
758.800, 0.212
758.900, 0.231
759.000, 0.213
759.100, 0.214
759.200, 0.200
759.300, 0.216
759.400, 0.230
759.500, 0.196
759.600, 0.199
759.700, 0.183
759.800, 0.180
759.900, 0.172
760.000, 0.185
760.100, 0.200
760.200, 0.190
760.300, 0.213
760.400, 0.208
760.500, 0.200
760.600, 0.181
760.700, 0.194
760.800, 0.189
760.900, 0.192
761.000, 0.207
761.100, 0.198
761.200, 0.197
761.300, 0.207
761.400, 0.199
761.500, 0.213
761.600, 0.204
761.700, 0.192
761.800, 0.210
761.900, 0.208
762.000, 0.192
762.100, 0.209
762.200, 0.219
762.300, 0.206
762.400, 0.197
762.500, 0.208
762.600, 0.167
762.700, 0.150
762.800, 0.141
762.900, 0.152
763.000, 0.135
763.100, 0.166
763.200, 0.157
763.300, 0.152
763.400, 0.154
763.500, 0.170
763.600, 0.148
763.700, 0.144
763.800, 0.147
763.900, 0.153
764.000, 0.131
764.100, 0.119
764.200, 0.136
764.300, 0.156
764.400, 0.128
764.500, 0.123
764.600, 0.121
764.700, 0.153
764.800, 0.143
764.900, 0.127
765.000, 0.155
765.100, 0.161
765.200, 0.163
765.300, 0.184
765.400, 0.185
765.500, 0.190
765.600, 0.163
765.700, 0.186
765.800, 0.166
765.900, 0.171
766.000, 0.160
766.100, 0.148
766.200, 0.175
766.300, 0.162
766.400, 0.159
766.500, 0.163
766.600, 0.171
766.700, 0.167
766.800, 0.160
766.900, 0.171
767.000, 0.169
767.100, 0.174
767.200, 0.152
767.300, 0.169
767.400, 0.163
767.500, 0.186
767.600, 0.199
767.700, 0.172
767.800, 0.177
767.900, 0.171
768.000, 0.176
768.100, 0.156
768.200, 0.169
768.300, 0.163
768.400, 0.175
768.500, 0.166
768.600, 0.155
768.700, 0.169
768.800, 0.165
768.900, 0.163
769.000, 0.169
769.100, 0.167
769.200, 0.175
769.300, 0.177
769.400, 0.185
769.500, 0.179
769.600, 0.178
769.700, 0.181
769.800, 0.168
769.900, 0.184
770.000, 0.193
770.100, 0.164
770.200, 0.186
770.300, 0.185
770.400, 0.178
770.500, 0.182
770.600, 0.175
770.700, 0.162
770.800, 0.145
770.900, 0.138
771.000, 0.156
771.100, 0.146
771.200, 0.145
771.300, 0.149
771.400, 0.165
771.500, 0.157
771.600, 0.150
771.700, 0.148
771.800, 0.146
771.900, 0.161
772.000, 0.139
772.100, 0.132
772.200, 0.150
772.300, 0.136
772.400, 0.157
772.500, 0.145
772.600, 0.133
772.700, 0.139
772.800, 0.139
772.900, 0.132
773.000, 0.148
773.100, 0.153
773.200, 0.165
773.300, 0.139
773.400, 0.129
773.500, 0.134
773.600, 0.159
773.700, 0.143
773.800, 0.171
773.900, 0.174
774.000, 0.183
774.100, 0.181
774.200, 0.167
774.300, 0.172
774.400, 0.154
774.500, 0.146
774.600, 0.158
774.700, 0.157
774.800, 0.155
774.900, 0.144
775.000, 0.149
775.100, 0.140
775.200, 0.138
775.300, 0.140
775.400, 0.125
775.500, 0.147
775.600, 0.147
775.700, 0.147
775.800, 0.144
775.900, 0.136
776.000, 0.131
776.100, 0.152
776.200, 0.152
776.300, 0.150
776.400, 0.169
776.500, 0.161
776.600, 0.157
776.700, 0.139
776.800, 0.144
776.900, 0.151
777.000, 0.135
777.100, 0.150
777.200, 0.157
777.300, 0.179
777.400, 0.157
777.500, 0.153
777.600, 0.162
777.700, 0.173
777.800, 0.163
777.900, 0.161
778.000, 0.148
778.100, 0.147
778.200, 0.163
778.300, 0.151
778.400, 0.156
778.500, 0.147
778.600, 0.150
778.700, 0.167
778.800, 0.142
778.900, 0.150
779.000, 0.164
779.100, 0.144
779.200, 0.149
779.300, 0.157
779.400, 0.167
779.500, 0.167
779.600, 0.192
779.700, 0.209
779.800, 0.189
779.900, 0.211
780.000, 0.201
780.100, 0.205
780.200, 0.204
780.300, 0.174
780.400, 0.179
780.500, 0.183
780.600, 0.181
780.700, 0.182
780.800, 0.190
780.900, 0.202
781.000, 0.181
781.100, 0.186
781.200, 0.197
781.300, 0.229
781.400, 0.173
781.500, 0.182
781.600, 0.179
781.700, 0.182
781.800, 0.185
781.900, 0.212
782.000, 0.192
782.100, 0.178
782.200, 0.166
782.300, 0.196
782.400, 0.187
782.500, 0.207
782.600, 0.182
782.700, 0.197
782.800, 0.171
782.900, 0.182
783.000, 0.154
783.100, 0.159
783.200, 0.146
783.300, 0.161
783.400, 0.182
783.500, 0.178
783.600, 0.155
783.700, 0.171
783.800, 0.171
783.900, 0.156
784.000, 0.155
784.100, 0.159
784.200, 0.162
784.300, 0.155
784.400, 0.162
784.500, 0.169
784.600, 0.151
784.700, 0.170
784.800, 0.156
784.900, 0.182
785.000, 0.173
785.100, 0.177
785.200, 0.188
785.300, 0.164
785.400, 0.149
785.500, 0.170
785.600, 0.147
785.700, 0.162
785.800, 0.158
785.900, 0.161
786.000, 0.184
786.100, 0.166
786.200, 0.167
786.300, 0.164
786.400, 0.178
786.500, 0.194
786.600, 0.189
786.700, 0.187
786.800, 0.158
786.900, 0.161
787.000, 0.171
787.100, 0.149
787.200, 0.172
787.300, 0.146
787.400, 0.139
787.500, 0.160
787.600, 0.167
787.700, 0.163
787.800, 0.167
787.900, 0.138
788.000, 0.151
788.100, 0.150
788.200, 0.149
788.300, 0.171
788.400, 0.166
788.500, 0.166
788.600, 0.146
788.700, 0.139
788.800, 0.159
788.900, 0.139
789.000, 0.143
789.100, 0.135
789.200, 0.119
789.300, 0.125
789.400, 0.134
789.500, 0.138
789.600, 0.121
789.700, 0.157
789.800, 0.140
789.900, 0.142
790.000, 0.145
790.100, 0.123
790.200, 0.149
790.300, 0.150
790.400, 0.182
790.500, 0.176
790.600, 0.175
790.700, 0.175
790.800, 0.161
790.900, 0.168
791.000, 0.169
791.100, 0.203
791.200, 0.185
791.300, 0.182
791.400, 0.195
791.500, 0.188
791.600, 0.177
791.700, 0.205
791.800, 0.182
791.900, 0.192
792.000, 0.178
792.100, 0.173
792.200, 0.149
792.300, 0.175
792.400, 0.155
792.500, 0.176
792.600, 0.161
792.700, 0.174
792.800, 0.148
792.900, 0.152
793.000, 0.154
793.100, 0.161
793.200, 0.165
793.300, 0.166
793.400, 0.179
793.500, 0.165
793.600, 0.169
793.700, 0.154
793.800, 0.173
793.900, 0.163
794.000, 0.170
794.100, 0.183
794.200, 0.153
794.300, 0.133
794.400, 0.180
794.500, 0.177
794.600, 0.173
794.700, 0.173
794.800, 0.168
794.900, 0.169
795.000, 0.183
795.100, 0.157
795.200, 0.187
795.300, 0.186
795.400, 0.199
795.500, 0.176
795.600, 0.194
795.700, 0.171
795.800, 0.176
795.900, 0.190
796.000, 0.178
796.100, 0.205
796.200, 0.181
796.300, 0.228
796.400, 0.196
796.500, 0.175
796.600, 0.158
796.700, 0.148
796.800, 0.142
796.900, 0.154
797.000, 0.152
797.100, 0.160
797.200, 0.157
797.300, 0.161
797.400, 0.151
797.500, 0.147
797.600, 0.162
797.700, 0.175
797.800, 0.177
797.900, 0.173
798.000, 0.187
798.100, 0.167
798.200, 0.160
798.300, 0.176
798.400, 0.187
798.500, 0.174
798.600, 0.186
798.700, 0.191
798.800, 0.179
798.900, 0.180
799.000, 0.172
799.100, 0.168
799.200, 0.164
799.300, 0.181
799.400, 0.158
799.500, 0.182
799.600, 0.148
799.700, 0.167
799.800, 0.172
799.900, 0.165
800.000, 0.161
800.100, 0.157
800.200, 0.152
800.300, 0.161
800.400, 0.182
800.500, 0.174
800.600, 0.174
800.700, 0.160
800.800, 0.153
800.900, 0.142
801.000, 0.156
801.100, 0.147
801.200, 0.169
801.300, 0.162
801.400, 0.176
801.500, 0.162
801.600, 0.168
801.700, 0.165
801.800, 0.188
801.900, 0.182
802.000, 0.176
802.100, 0.165
802.200, 0.159
802.300, 0.160
802.400, 0.148
802.500, 0.151
802.600, 0.158
802.700, 0.182
802.800, 0.183
802.900, 0.168
803.000, 0.169
803.100, 0.159
803.200, 0.151
803.300, 0.151
803.400, 0.145
803.500, 0.141
803.600, 0.148
803.700, 0.158
803.800, 0.173
803.900, 0.140
804.000, 0.132
804.100, 0.123
804.200, 0.130
804.300, 0.135
804.400, 0.143
804.500, 0.135
804.600, 0.126
804.700, 0.152
804.800, 0.152
804.900, 0.152
805.000, 0.157
805.100, 0.173
805.200, 0.165
805.300, 0.159
805.400, 0.154
805.500, 0.171
805.600, 0.152
805.700, 0.129
805.800, 0.133
805.900, 0.150
806.000, 0.164
806.100, 0.152
806.200, 0.136
806.300, 0.169
806.400, 0.161
806.500, 0.165
806.600, 0.160
806.700, 0.180
806.800, 0.187
806.900, 0.148
807.000, 0.169
807.100, 0.142
807.200, 0.130
807.300, 0.137
807.400, 0.131
807.500, 0.148
807.600, 0.155
807.700, 0.152
807.800, 0.141
807.900, 0.156
808.000, 0.151
808.100, 0.157
808.200, 0.168
808.300, 0.161
808.400, 0.167
808.500, 0.142
808.600, 0.149
808.700, 0.139
808.800, 0.130
808.900, 0.143
809.000, 0.173
809.100, 0.152
809.200, 0.164
809.300, 0.146
809.400, 0.154
809.500, 0.144
809.600, 0.131
809.700, 0.140
809.800, 0.148
809.900, 0.162
810.000, 0.147
810.100, 0.143
810.200, 0.151
810.300, 0.157
810.400, 0.142
810.500, 0.128
810.600, 0.140
810.700, 0.144
810.800, 0.151
810.900, 0.143
811.000, 0.144
811.100, 0.147
811.200, 0.154
811.300, 0.144
811.400, 0.141
811.500, 0.150
811.600, 0.144
811.700, 0.139
811.800, 0.132
811.900, 0.140
812.000, 0.154
812.100, 0.151
812.200, 0.151
812.300, 0.150
812.400, 0.156
812.500, 0.159
812.600, 0.152
812.700, 0.156
812.800, 0.153
812.900, 0.145
813.000, 0.146
813.100, 0.136
813.200, 0.151
813.300, 0.161
813.400, 0.158
813.500, 0.159
813.600, 0.171
813.700, 0.167
813.800, 0.158
813.900, 0.165
814.000, 0.152
814.100, 0.155
814.200, 0.166
814.300, 0.160
814.400, 0.148
814.500, 0.137
814.600, 0.130
814.700, 0.125
814.800, 0.145
814.900, 0.113
815.000, 0.119
815.100, 0.121
815.200, 0.134
815.300, 0.148
815.400, 0.168
815.500, 0.117
815.600, 0.115
815.700, 0.120
815.800, 0.103
815.900, 0.102
816.000, 0.110
816.100, 0.110
816.200, 0.107
816.300, 0.098
816.400, 0.102
816.500, 0.120
816.600, 0.106
816.700, 0.101
816.800, 0.121
816.900, 0.127
817.000, 0.094
817.100, 0.112
817.200, 0.125
817.300, 0.120
817.400, 0.119
817.500, 0.122
817.600, 0.111
817.700, 0.116
817.800, 0.125
817.900, 0.139
818.000, 0.127
818.100, 0.130
818.200, 0.119
818.300, 0.114
818.400, 0.112
818.500, 0.097
818.600, 0.132
818.700, 0.122
818.800, 0.129
818.900, 0.130
819.000, 0.123
819.100, 0.109
819.200, 0.114
819.300, 0.128
819.400, 0.127
819.500, 0.140
819.600, 0.146
819.700, 0.133
819.800, 0.137
819.900, 0.125
820.000, 0.137
820.100, 0.152
820.200, 0.164
820.300, 0.146
820.400, 0.146
820.500, 0.137
820.600, 0.122
820.700, 0.130
820.800, 0.145
820.900, 0.155
821.000, 0.131
821.100, 0.123
821.200, 0.131
821.300, 0.150
821.400, 0.145
821.500, 0.121
821.600, 0.143
821.700, 0.142
821.800, 0.139
821.900, 0.154
822.000, 0.130
822.100, 0.140
822.200, 0.124
822.300, 0.111
822.400, 0.127
822.500, 0.150
822.600, 0.144
822.700, 0.147
822.800, 0.159
822.900, 0.185
823.000, 0.183
823.100, 0.170
823.200, 0.166
823.300, 0.167
823.400, 0.156
823.500, 0.154
823.600, 0.145
823.700, 0.171
823.800, 0.161
823.900, 0.141
824.000, 0.140
824.100, 0.146
824.200, 0.150
824.300, 0.129
824.400, 0.161
824.500, 0.138
824.600, 0.151
824.700, 0.164
824.800, 0.156
824.900, 0.154
825.000, 0.154
825.100, 0.172
825.200, 0.166
825.300, 0.166
825.400, 0.183
825.500, 0.183
825.600, 0.181
825.700, 0.158
825.800, 0.153
825.900, 0.143
826.000, 0.155
826.100, 0.160
826.200, 0.159
826.300, 0.143
826.400, 0.160
826.500, 0.173
826.600, 0.167
826.700, 0.157
826.800, 0.164
826.900, 0.166
827.000, 0.162
827.100, 0.158
827.200, 0.159
827.300, 0.153
827.400, 0.161
827.500, 0.162
827.600, 0.155
827.700, 0.137
827.800, 0.159
827.900, 0.165
828.000, 0.153
828.100, 0.149
828.200, 0.162
828.300, 0.162
828.400, 0.165
828.500, 0.165
828.600, 0.156
828.700, 0.149
828.800, 0.143
828.900, 0.138
829.000, 0.146
829.100, 0.110
829.200, 0.125
829.300, 0.112
829.400, 0.129
829.500, 0.140
829.600, 0.124
829.700, 0.142
829.800, 0.154
829.900, 0.137
830.000, 0.114
830.100, 0.129
830.200, 0.116
830.300, 0.121
830.400, 0.133
830.500, 0.123
830.600, 0.119
830.700, 0.127
830.800, 0.136
830.900, 0.105
831.000, 0.132
831.100, 0.120
831.200, 0.126
831.300, 0.123
831.400, 0.139
831.500, 0.161
831.600, 0.173
831.700, 0.140
831.800, 0.174
831.900, 0.152
832.000, 0.131
832.100, 0.125
832.200, 0.130
832.300, 0.126
832.400, 0.123
832.500, 0.122
832.600, 0.139
832.700, 0.139
832.800, 0.157
832.900, 0.152
833.000, 0.160
833.100, 0.141
833.200, 0.152
833.300, 0.153
833.400, 0.170
833.500, 0.139
833.600, 0.149
833.700, 0.154
833.800, 0.164
833.900, 0.147
834.000, 0.162
834.100, 0.137
834.200, 0.164
834.300, 0.175
834.400, 0.163
834.500, 0.159
834.600, 0.160
834.700, 0.162
834.800, 0.153
834.900, 0.142
835.000, 0.158
835.100, 0.151
835.200, 0.187
835.300, 0.162
835.400, 0.156
835.500, 0.196
835.600, 0.175
835.700, 0.171
835.800, 0.156
835.900, 0.160
836.000, 0.165
836.100, 0.183
836.200, 0.176
836.300, 0.212
836.400, 0.185
836.500, 0.160
836.600, 0.179
836.700, 0.162
836.800, 0.149
836.900, 0.144
837.000, 0.154
837.100, 0.141
837.200, 0.176
837.300, 0.169
837.400, 0.162
837.500, 0.210
837.600, 0.196
837.700, 0.202
837.800, 0.198
837.900, 0.190
838.000, 0.204
838.100, 0.190
838.200, 0.197
838.300, 0.203
838.400, 0.169
838.500, 0.201
838.600, 0.170
838.700, 0.169
838.800, 0.172
838.900, 0.166
839.000, 0.158
839.100, 0.164
839.200, 0.159
839.300, 0.155
839.400, 0.163
839.500, 0.176
839.600, 0.157
839.700, 0.165
839.800, 0.164
839.900, 0.180
840.000, 0.176
840.100, 0.153
840.200, 0.153
840.300, 0.146
840.400, 0.162
840.500, 0.158
840.600, 0.175
840.700, 0.169
840.800, 0.157
840.900, 0.154
841.000, 0.174
841.100, 0.174
841.200, 0.169
841.300, 0.173
841.400, 0.169
841.500, 0.142
841.600, 0.161
841.700, 0.161
841.800, 0.174
841.900, 0.165
842.000, 0.156
842.100, 0.165
842.200, 0.190
842.300, 0.170
842.400, 0.162
842.500, 0.159
842.600, 0.171
842.700, 0.184
842.800, 0.183
842.900, 0.173
843.000, 0.161
843.100, 0.175
843.200, 0.191
843.300, 0.186
843.400, 0.179
843.500, 0.211
843.600, 0.185
843.700, 0.214
843.800, 0.176
843.900, 0.189
844.000, 0.189
844.100, 0.155
844.200, 0.140
844.300, 0.133
844.400, 0.141
844.500, 0.134
844.600, 0.136
844.700, 0.140
844.800, 0.113
844.900, 0.137
845.000, 0.143
845.100, 0.120
845.200, 0.125
845.300, 0.123
845.400, 0.140
845.500, 0.129
845.600, 0.123
845.700, 0.138
845.800, 0.121
845.900, 0.125
846.000, 0.126
846.100, 0.110
846.200, 0.135
846.300, 0.146
846.400, 0.157
846.500, 0.128
846.600, 0.122
846.700, 0.148
846.800, 0.165
846.900, 0.166
847.000, 0.155
847.100, 0.130
847.200, 0.139
847.300, 0.137
847.400, 0.136
847.500, 0.142
847.600, 0.125
847.700, 0.136
847.800, 0.119
847.900, 0.141
848.000, 0.140
848.100, 0.122
848.200, 0.117
848.300, 0.118
848.400, 0.144
848.500, 0.155
848.600, 0.186
848.700, 0.167
848.800, 0.163
848.900, 0.151
849.000, 0.153
849.100, 0.165
849.200, 0.151
849.300, 0.153
849.400, 0.154
849.500, 0.126
849.600, 0.152
849.700, 0.132
849.800, 0.154
849.900, 0.140
850.000, 0.138
850.100, 0.152
850.200, 0.138
850.300, 0.154
850.400, 0.154
850.500, 0.157
850.600, 0.167
850.700, 0.163
850.800, 0.151
850.900, 0.155
851.000, 0.168
851.100, 0.142
851.200, 0.166
851.300, 0.152
851.400, 0.145
851.500, 0.141
851.600, 0.153
851.700, 0.151
851.800, 0.170
851.900, 0.180
852.000, 0.148
852.100, 0.161
852.200, 0.174
852.300, 0.152
852.400, 0.172
852.500, 0.146
852.600, 0.143
852.700, 0.160
852.800, 0.153
852.900, 0.149
853.000, 0.172
853.100, 0.168
853.200, 0.174
853.300, 0.190
853.400, 0.169
853.500, 0.166
853.600, 0.169
853.700, 0.176
853.800, 0.176
853.900, 0.165
854.000, 0.140
854.100, 0.145
854.200, 0.146
854.300, 0.168
854.400, 0.165
854.500, 0.181
854.600, 0.188
854.700, 0.175
854.800, 0.166
854.900, 0.186
855.000, 0.149
855.100, 0.176
855.200, 0.146
855.300, 0.143
855.400, 0.151
855.500, 0.122
855.600, 0.152
855.700, 0.121
855.800, 0.134
855.900, 0.143
856.000, 0.121
856.100, 0.138
856.200, 0.141
856.300, 0.155
856.400, 0.171
856.500, 0.134
856.600, 0.121
856.700, 0.125
856.800, 0.122
856.900, 0.121
857.000, 0.127
857.100, 0.121
857.200, 0.132
857.300, 0.149
857.400, 0.109
857.500, 0.142
857.600, 0.164
857.700, 0.147
857.800, 0.128
857.900, 0.146
858.000, 0.157
858.100, 0.142
858.200, 0.143
858.300, 0.123
858.400, 0.119
858.500, 0.141
858.600, 0.149
858.700, 0.124
858.800, 0.127
858.900, 0.138
859.000, 0.142
859.100, 0.120
859.200, 0.140
859.300, 0.132
859.400, 0.125
859.500, 0.123
859.600, 0.134
859.700, 0.123
859.800, 0.129
859.900, 0.113
860.000, 0.115
860.100, 0.123
860.200, 0.121
860.300, 0.127
860.400, 0.148
860.500, 0.125
860.600, 0.142
860.700, 0.137
860.800, 0.123
860.900, 0.120
861.000, 0.129
861.100, 0.126
861.200, 0.134
861.300, 0.131
861.400, 0.130
861.500, 0.146
861.600, 0.148
861.700, 0.131
861.800, 0.125
861.900, 0.130
862.000, 0.148
862.100, 0.132
862.200, 0.127
862.300, 0.129
862.400, 0.122
862.500, 0.129
862.600, 0.124
862.700, 0.142
862.800, 0.140
862.900, 0.157
863.000, 0.144
863.100, 0.158
863.200, 0.144
863.300, 0.141
863.400, 0.147
863.500, 0.135
863.600, 0.127
863.700, 0.117
863.800, 0.125
863.900, 0.142
864.000, 0.138
864.100, 0.144
864.200, 0.150
864.300, 0.163
864.400, 0.164
864.500, 0.155
864.600, 0.152
864.700, 0.150
864.800, 0.133
864.900, 0.157
865.000, 0.161
865.100, 0.156
865.200, 0.167
865.300, 0.173
865.400, 0.179
865.500, 0.155
865.600, 0.151
865.700, 0.152
865.800, 0.163
865.900, 0.147
866.000, 0.168
866.100, 0.166
866.200, 0.153
866.300, 0.151
866.400, 0.161
866.500, 0.157
866.600, 0.137
866.700, 0.127
866.800, 0.120
866.900, 0.133
867.000, 0.120
867.100, 0.142
867.200, 0.141
867.300, 0.136
867.400, 0.121
867.500, 0.149
867.600, 0.149
867.700, 0.148
867.800, 0.164
867.900, 0.148
868.000, 0.135
868.100, 0.128
868.200, 0.121
868.300, 0.135
868.400, 0.136
868.500, 0.133
868.600, 0.155
868.700, 0.146
868.800, 0.156
868.900, 0.139
869.000, 0.141
869.100, 0.143
869.200, 0.147
869.300, 0.144
869.400, 0.138
869.500, 0.151
869.600, 0.149
869.700, 0.141
869.800, 0.145
869.900, 0.138
870.000, 0.148
870.100, 0.153
870.200, 0.139
870.300, 0.155
870.400, 0.140
870.500, 0.159
870.600, 0.139
870.700, 0.151
870.800, 0.145
870.900, 0.143
871.000, 0.169
871.100, 0.126
871.200, 0.129
871.300, 0.124
871.400, 0.129
871.500, 0.114
871.600, 0.142
871.700, 0.135
871.800, 0.141
871.900, 0.139
872.000, 0.134
872.100, 0.127
872.200, 0.135
872.300, 0.141
872.400, 0.147
872.500, 0.126
872.600, 0.133
872.700, 0.136
872.800, 0.148
872.900, 0.160
873.000, 0.138
873.100, 0.137
873.200, 0.147
873.300, 0.137
873.400, 0.140
873.500, 0.139
873.600, 0.135
873.700, 0.144
873.800, 0.131
873.900, 0.139
874.000, 0.130
874.100, 0.143
874.200, 0.147
874.300, 0.134
874.400, 0.123
874.500, 0.145
874.600, 0.143
874.700, 0.138
874.800, 0.155
874.900, 0.143
875.000, 0.141
875.100, 0.158
875.200, 0.157
875.300, 0.171
875.400, 0.181
875.500, 0.176
875.600, 0.149
875.700, 0.157
875.800, 0.174
875.900, 0.146
876.000, 0.147
876.100, 0.140
876.200, 0.152
876.300, 0.144
876.400, 0.152
876.500, 0.132
876.600, 0.182
876.700, 0.167
876.800, 0.218
876.900, 0.194
877.000, 0.185
877.100, 0.169
877.200, 0.196
877.300, 0.178
877.400, 0.185
877.500, 0.202
877.600, 0.214
877.700, 0.212
877.800, 0.195
877.900, 0.206
878.000, 0.176
878.100, 0.185
878.200, 0.182
878.300, 0.204
878.400, 0.210
878.500, 0.179
878.600, 0.199
878.700, 0.189
878.800, 0.191
878.900, 0.181
879.000, 0.214
879.100, 0.203
879.200, 0.208
879.300, 0.204
879.400, 0.195
879.500, 0.200
879.600, 0.175
879.700, 0.209
879.800, 0.202
879.900, 0.176
880.000, 0.190
880.100, 0.222
880.200, 0.232
880.300, 0.194
880.400, 0.187
880.500, 0.194
880.600, 0.189
880.700, 0.219
880.800, 0.184
880.900, 0.191
881.000, 0.204
881.100, 0.198
881.200, 0.186
881.300, 0.189
881.400, 0.209
881.500, 0.198
881.600, 0.194
881.700, 0.204
881.800, 0.203
881.900, 0.203
882.000, 0.194
882.100, 0.200
882.200, 0.189
882.300, 0.185
882.400, 0.207
882.500, 0.163
882.600, 0.172
882.700, 0.171
882.800, 0.166
882.900, 0.180
883.000, 0.194
883.100, 0.172
883.200, 0.194
883.300, 0.174
883.400, 0.185
883.500, 0.170
883.600, 0.195
883.700, 0.192
883.800, 0.174
883.900, 0.173
884.000, 0.170
884.100, 0.185
884.200, 0.185
884.300, 0.177
884.400, 0.189
884.500, 0.188
884.600, 0.186
884.700, 0.176
884.800, 0.184
884.900, 0.167
885.000, 0.170
885.100, 0.185
885.200, 0.179
885.300, 0.199
885.400, 0.180
885.500, 0.197
885.600, 0.186
885.700, 0.208
885.800, 0.193
885.900, 0.202
886.000, 0.192
886.100, 0.183
886.200, 0.175
886.300, 0.193
886.400, 0.168
886.500, 0.171
886.600, 0.169
886.700, 0.169
886.800, 0.180
886.900, 0.180
887.000, 0.158
887.100, 0.184
887.200, 0.164
887.300, 0.194
887.400, 0.200
887.500, 0.166
887.600, 0.181
887.700, 0.200
887.800, 0.191
887.900, 0.179
888.000, 0.183
888.100, 0.190
888.200, 0.181
888.300, 0.195
888.400, 0.199
888.500, 0.196
888.600, 0.195
888.700, 0.170
888.800, 0.198
888.900, 0.181
889.000, 0.214
889.100, 0.187
889.200, 0.183
889.300, 0.190
889.400, 0.182
889.500, 0.186
889.600, 0.194
889.700, 0.182
889.800, 0.187
889.900, 0.138
890.000, 0.153
890.100, 0.160
890.200, 0.183
890.300, 0.179
890.400, 0.203
890.500, 0.207
890.600, 0.191
890.700, 0.209
890.800, 0.196
890.900, 0.189
891.000, 0.194
891.100, 0.190
891.200, 0.191
891.300, 0.209
891.400, 0.195
891.500, 0.204
891.600, 0.179
891.700, 0.173
891.800, 0.188
891.900, 0.180
892.000, 0.193
892.100, 0.170
892.200, 0.167
892.300, 0.159
892.400, 0.161
892.500, 0.150
892.600, 0.146
892.700, 0.192
892.800, 0.194
892.900, 0.190
893.000, 0.173
893.100, 0.174
893.200, 0.177
893.300, 0.162
893.400, 0.163
893.500, 0.140
893.600, 0.153
893.700, 0.141
893.800, 0.158
893.900, 0.147
894.000, 0.173
894.100, 0.165
894.200, 0.166
894.300, 0.186
894.400, 0.183
894.500, 0.183
894.600, 0.212
894.700, 0.189
894.800, 0.165
894.900, 0.177
895.000, 0.178
895.100, 0.198
895.200, 0.182
895.300, 0.216
895.400, 0.220
895.500, 0.193
895.600, 0.186
895.700, 0.185
895.800, 0.191
895.900, 0.177
896.000, 0.170
896.100, 0.177
896.200, 0.180
896.300, 0.176
896.400, 0.176
896.500, 0.182
896.600, 0.195
896.700, 0.198
896.800, 0.187
896.900, 0.189
897.000, 0.200
897.100, 0.194
897.200, 0.202
897.300, 0.221
897.400, 0.218
897.500, 0.218
897.600, 0.213
897.700, 0.206
897.800, 0.190
897.900, 0.178
898.000, 0.186
898.100, 0.199
898.200, 0.209
898.300, 0.205
898.400, 0.202
898.500, 0.202
898.600, 0.215
898.700, 0.206
898.800, 0.201
898.900, 0.211
899.000, 0.196
899.100, 0.184
899.200, 0.196
899.300, 0.183
899.400, 0.179
899.500, 0.188
899.600, 0.186
899.700, 0.181
899.800, 0.183
899.900, 0.172
900.000, 0.181
900.100, 0.208
900.200, 0.209
900.300, 0.192
900.400, 0.195
900.500, 0.188
900.600, 0.193
900.700, 0.179
900.800, 0.179
900.900, 0.169
901.000, 0.205
901.100, 0.183
901.200, 0.200
901.300, 0.193
901.400, 0.202
901.500, 0.190
901.600, 0.186
901.700, 0.197
901.800, 0.168
901.900, 0.173
902.000, 0.196
902.100, 0.202
902.200, 0.205
902.300, 0.213
902.400, 0.206
902.500, 0.197
902.600, 0.233
902.700, 0.222
902.800, 0.209
902.900, 0.203
903.000, 0.207
903.100, 0.212
903.200, 0.170
903.300, 0.197
903.400, 0.179
903.500, 0.177
903.600, 0.155
903.700, 0.169
903.800, 0.189
903.900, 0.171
904.000, 0.178
904.100, 0.166
904.200, 0.167
904.300, 0.158
904.400, 0.178
904.500, 0.193
904.600, 0.184
904.700, 0.179
904.800, 0.157
904.900, 0.157
905.000, 0.167
905.100, 0.168
905.200, 0.161
905.300, 0.146
905.400, 0.154
905.500, 0.130
905.600, 0.142
905.700, 0.141
905.800, 0.137
905.900, 0.134
906.000, 0.155
906.100, 0.141
906.200, 0.126
906.300, 0.140
906.400, 0.142
906.500, 0.161
906.600, 0.155
906.700, 0.162
906.800, 0.141
906.900, 0.122
907.000, 0.133
907.100, 0.147
907.200, 0.138
907.300, 0.137
907.400, 0.142
907.500, 0.167
907.600, 0.143
907.700, 0.177
907.800, 0.146
907.900, 0.169
908.000, 0.170
908.100, 0.173
908.200, 0.145
908.300, 0.129
908.400, 0.126
908.500, 0.124
908.600, 0.131
908.700, 0.150
908.800, 0.160
908.900, 0.153
909.000, 0.138
909.100, 0.137
909.200, 0.138
909.300, 0.122
909.400, 0.118
909.500, 0.145
909.600, 0.126
909.700, 0.149
909.800, 0.121
909.900, 0.112
910.000, 0.117
910.100, 0.124
910.200, 0.120
910.300, 0.131
910.400, 0.120
910.500, 0.120
910.600, 0.132
910.700, 0.136
910.800, 0.134
910.900, 0.142
911.000, 0.121
911.100, 0.123
911.200, 0.128
911.300, 0.130
911.400, 0.113
911.500, 0.124
911.600, 0.126
911.700, 0.147
911.800, 0.143
911.900, 0.138
912.000, 0.123
912.100, 0.136
912.200, 0.140
912.300, 0.133
912.400, 0.136
912.500, 0.126
912.600, 0.129
912.700, 0.131
912.800, 0.128
912.900, 0.153
913.000, 0.136
913.100, 0.137
913.200, 0.146
913.300, 0.142
913.400, 0.144
913.500, 0.148
913.600, 0.156
913.700, 0.141
913.800, 0.137
913.900, 0.165
914.000, 0.148
914.100, 0.147
914.200, 0.165
914.300, 0.139
914.400, 0.135
914.500, 0.149
914.600, 0.158
914.700, 0.149
914.800, 0.142
914.900, 0.155
915.000, 0.151
915.100, 0.148
915.200, 0.143
915.300, 0.135
915.400, 0.142
915.500, 0.175
915.600, 0.154
915.700, 0.150
915.800, 0.150
915.900, 0.156
916.000, 0.160
916.100, 0.167
916.200, 0.145
916.300, 0.149
916.400, 0.136
916.500, 0.139
916.600, 0.128
916.700, 0.121
916.800, 0.113
916.900, 0.122
917.000, 0.117
917.100, 0.122
917.200, 0.136
917.300, 0.136
917.400, 0.157
917.500, 0.167
917.600, 0.152
917.700, 0.165
917.800, 0.152
917.900, 0.165
918.000, 0.118
918.100, 0.118
918.200, 0.119
918.300, 0.134
918.400, 0.132
918.500, 0.132
918.600, 0.124
918.700, 0.140
918.800, 0.152
918.900, 0.163
919.000, 0.127
919.100, 0.125
919.200, 0.109
919.300, 0.107
919.400, 0.139
919.500, 0.140
919.600, 0.154
919.700, 0.169
919.800, 0.147
919.900, 0.191
920.000, 0.172
920.100, 0.155
920.200, 0.161
920.300, 0.142
920.400, 0.158
920.500, 0.165
920.600, 0.162
920.700, 0.167
920.800, 0.153
920.900, 0.145
921.000, 0.148
921.100, 0.160
921.200, 0.175
921.300, 0.166
921.400, 0.149
921.500, 0.141
921.600, 0.125
921.700, 0.162
921.800, 0.156
921.900, 0.155
922.000, 0.153
922.100, 0.192
922.200, 0.191
922.300, 0.182
922.400, 0.155
922.500, 0.160
922.600, 0.154
922.700, 0.152
922.800, 0.184
922.900, 0.172
923.000, 0.151
923.100, 0.172
923.200, 0.159
923.300, 0.144
923.400, 0.138
923.500, 0.147
923.600, 0.128
923.700, 0.147
923.800, 0.151
923.900, 0.114
924.000, 0.137
924.100, 0.132
924.200, 0.158
924.300, 0.149
924.400, 0.156
924.500, 0.157
924.600, 0.149
924.700, 0.142
924.800, 0.141
924.900, 0.149
925.000, 0.167
925.100, 0.166
925.200, 0.148
925.300, 0.136
925.400, 0.143
925.500, 0.138
925.600, 0.146
925.700, 0.159
925.800, 0.138
925.900, 0.155
926.000, 0.141
926.100, 0.128
926.200, 0.141
926.300, 0.131
926.400, 0.146
926.500, 0.136
926.600, 0.159
926.700, 0.149
926.800, 0.146
926.900, 0.170
927.000, 0.166
927.100, 0.163
927.200, 0.158
927.300, 0.167
927.400, 0.177
927.500, 0.172
927.600, 0.142
927.700, 0.150
927.800, 0.143
927.900, 0.172
928.000, 0.160
928.100, 0.159
928.200, 0.142
928.300, 0.172
928.400, 0.162
928.500, 0.169
928.600, 0.172
928.700, 0.172
928.800, 0.162
928.900, 0.171
929.000, 0.146
929.100, 0.146
929.200, 0.140
929.300, 0.137
929.400, 0.160
929.500, 0.124
929.600, 0.120
929.700, 0.134
929.800, 0.111
929.900, 0.129
930.000, 0.138
930.100, 0.138
930.200, 0.136
930.300, 0.142
930.400, 0.127
930.500, 0.144
930.600, 0.143
930.700, 0.173
930.800, 0.146
930.900, 0.133
931.000, 0.159
931.100, 0.144
931.200, 0.162
931.300, 0.143
931.400, 0.137
931.500, 0.148
931.600, 0.137
931.700, 0.131
931.800, 0.128
931.900, 0.120
932.000, 0.127
932.100, 0.141
932.200, 0.158
932.300, 0.163
932.400, 0.185
932.500, 0.180
932.600, 0.164
932.700, 0.145
932.800, 0.142
932.900, 0.138
933.000, 0.141
933.100, 0.154
933.200, 0.147
933.300, 0.152
933.400, 0.144
933.500, 0.162
933.600, 0.168
933.700, 0.150
933.800, 0.160
933.900, 0.163
934.000, 0.152
934.100, 0.139
934.200, 0.149
934.300, 0.150
934.400, 0.147
934.500, 0.152
934.600, 0.154
934.700, 0.160
934.800, 0.175
934.900, 0.160
935.000, 0.164
935.100, 0.184
935.200, 0.173
935.300, 0.188
935.400, 0.160
935.500, 0.174
935.600, 0.174
935.700, 0.142
935.800, 0.155
935.900, 0.154
936.000, 0.165
936.100, 0.179
936.200, 0.184
936.300, 0.154
936.400, 0.155
936.500, 0.169
936.600, 0.158
936.700, 0.178
936.800, 0.161
936.900, 0.186
937.000, 0.174
937.100, 0.134
937.200, 0.128
937.300, 0.113
937.400, 0.115
937.500, 0.122
937.600, 0.124
937.700, 0.112
937.800, 0.129
937.900, 0.113
938.000, 0.125
938.100, 0.168
938.200, 0.158
938.300, 0.129
938.400, 0.151
938.500, 0.137
938.600, 0.137
938.700, 0.167
938.800, 0.170
938.900, 0.175
939.000, 0.177
939.100, 0.176
939.200, 0.160
939.300, 0.122
939.400, 0.162
939.500, 0.144
939.600, 0.128
939.700, 0.130
939.800, 0.147
939.900, 0.124
940.000, 0.159
940.100, 0.162
940.200, 0.146
940.300, 0.144
940.400, 0.190
940.500, 0.145
940.600, 0.144
940.700, 0.152
940.800, 0.137
940.900, 0.146
941.000, 0.144
941.100, 0.148
941.200, 0.146
941.300, 0.145
941.400, 0.136
941.500, 0.156
941.600, 0.188
941.700, 0.136
941.800, 0.132
941.900, 0.131
942.000, 0.158
942.100, 0.175
942.200, 0.159
942.300, 0.184
942.400, 0.168
942.500, 0.176
942.600, 0.157
942.700, 0.166
942.800, 0.164
942.900, 0.157
943.000, 0.186
943.100, 0.174
943.200, 0.178
943.300, 0.176
943.400, 0.164
943.500, 0.172
943.600, 0.179
943.700, 0.153
943.800, 0.182
943.900, 0.174
944.000, 0.167
944.100, 0.197
944.200, 0.181
944.300, 0.188
944.400, 0.206
944.500, 0.216
944.600, 0.228
944.700, 0.211
944.800, 0.211
944.900, 0.206
945.000, 0.189
945.100, 0.194
945.200, 0.187
945.300, 0.192
945.400, 0.194
945.500, 0.193
945.600, 0.200
945.700, 0.197
945.800, 0.188
945.900, 0.199
946.000, 0.220
946.100, 0.221
946.200, 0.211
946.300, 0.202
946.400, 0.209
946.500, 0.223
946.600, 0.227
946.700, 0.196
946.800, 0.206
946.900, 0.177
947.000, 0.179
947.100, 0.161
947.200, 0.171
947.300, 0.191
947.400, 0.185
947.500, 0.181
947.600, 0.167
947.700, 0.182
947.800, 0.187
947.900, 0.171
948.000, 0.186
948.100, 0.208
948.200, 0.202
948.300, 0.201
948.400, 0.182
948.500, 0.184
948.600, 0.187
948.700, 0.209
948.800, 0.197
948.900, 0.199
949.000, 0.187
949.100, 0.196
949.200, 0.218
949.300, 0.226
949.400, 0.231
949.500, 0.242
949.600, 0.210
949.700, 0.219
949.800, 0.200
949.900, 0.173
950.000, 0.164
950.100, 0.166
950.200, 0.171
950.300, 0.154
950.400, 0.168
950.500, 0.160
950.600, 0.166
950.700, 0.165
950.800, 0.162
950.900, 0.170
951.000, 0.157
951.100, 0.159
951.200, 0.186
951.300, 0.174
951.400, 0.160
951.500, 0.161
951.600, 0.172
951.700, 0.161
951.800, 0.179
951.900, 0.147
952.000, 0.176
952.100, 0.176
952.200, 0.167
952.300, 0.179
952.400, 0.218
952.500, 0.169
952.600, 0.185
952.700, 0.198
952.800, 0.176
952.900, 0.158
953.000, 0.158
953.100, 0.168
953.200, 0.171
953.300, 0.204
953.400, 0.177
953.500, 0.174
953.600, 0.200
953.700, 0.186
953.800, 0.191
953.900, 0.174
954.000, 0.182
954.100, 0.160
954.200, 0.157
954.300, 0.158
954.400, 0.156
954.500, 0.144
954.600, 0.143
954.700, 0.137
954.800, 0.154
954.900, 0.144
955.000, 0.170
955.100, 0.174
955.200, 0.163
955.300, 0.162
955.400, 0.151
955.500, 0.155
955.600, 0.145
955.700, 0.148
955.800, 0.128
955.900, 0.136
956.000, 0.137
956.100, 0.162
956.200, 0.165
956.300, 0.170
956.400, 0.164
956.500, 0.164
956.600, 0.160
956.700, 0.155
956.800, 0.144
956.900, 0.156
957.000, 0.148
957.100, 0.149
957.200, 0.148
957.300, 0.151
957.400, 0.145
957.500, 0.144
957.600, 0.172
957.700, 0.156
957.800, 0.146
957.900, 0.150
958.000, 0.173
958.100, 0.159
958.200, 0.173
958.300, 0.145
958.400, 0.164
958.500, 0.138
958.600, 0.148
958.700, 0.150
958.800, 0.147
958.900, 0.154
959.000, 0.155
959.100, 0.154
959.200, 0.158
959.300, 0.169
959.400, 0.154
959.500, 0.166
959.600, 0.158
959.700, 0.165
959.800, 0.161
959.900, 0.167
960.000, 0.151
960.100, 0.150
960.200, 0.142
960.300, 0.153
960.400, 0.152
960.500, 0.163
960.600, 0.146
960.700, 0.156
960.800, 0.155
960.900, 0.161
961.000, 0.156
961.100, 0.174
961.200, 0.140
961.300, 0.144
961.400, 0.154
961.500, 0.167
961.600, 0.173
961.700, 0.187
961.800, 0.165
961.900, 0.168
962.000, 0.168
962.100, 0.180
962.200, 0.170
962.300, 0.191
962.400, 0.172
962.500, 0.185
962.600, 0.179
962.700, 0.169
962.800, 0.169
962.900, 0.157
963.000, 0.184
963.100, 0.182
963.200, 0.169
963.300, 0.171
963.400, 0.169
963.500, 0.169
963.600, 0.170
963.700, 0.174
963.800, 0.171
963.900, 0.183
964.000, 0.201
964.100, 0.210
964.200, 0.202
964.300, 0.169
964.400, 0.186
964.500, 0.171
964.600, 0.189
964.700, 0.178
964.800, 0.171
964.900, 0.175
965.000, 0.202
965.100, 0.175
965.200, 0.159
965.300, 0.162
965.400, 0.161
965.500, 0.174
965.600, 0.188
965.700, 0.173
965.800, 0.156
965.900, 0.172
966.000, 0.165
966.100, 0.169
966.200, 0.172
966.300, 0.173
966.400, 0.157
966.500, 0.161
966.600, 0.170
966.700, 0.140
966.800, 0.145
966.900, 0.142
967.000, 0.153
967.100, 0.187
967.200, 0.175
967.300, 0.177
967.400, 0.158
967.500, 0.157
967.600, 0.173
967.700, 0.171
967.800, 0.163
967.900, 0.193
968.000, 0.210
968.100, 0.216
968.200, 0.188
968.300, 0.202
968.400, 0.191
968.500, 0.206
968.600, 0.193
968.700, 0.201
968.800, 0.189
968.900, 0.198
969.000, 0.162
969.100, 0.168
969.200, 0.172
969.300, 0.172
969.400, 0.183
969.500, 0.182
969.600, 0.186
969.700, 0.174
969.800, 0.180
969.900, 0.179
970.000, 0.176
970.100, 0.192
970.200, 0.193
970.300, 0.179
970.400, 0.175
970.500, 0.148
970.600, 0.155
970.700, 0.160
970.800, 0.150
970.900, 0.154
971.000, 0.197
971.100, 0.182
971.200, 0.164
971.300, 0.123
971.400, 0.121
971.500, 0.144
971.600, 0.134
971.700, 0.137
971.800, 0.139
971.900, 0.149
972.000, 0.216
972.100, 0.154
972.200, 0.147
972.300, 0.171
972.400, 0.164
972.500, 0.145
972.600, 0.169
972.700, 0.153
972.800, 0.167
972.900, 0.183
973.000, 0.155
973.100, 0.165
973.200, 0.137
973.300, 0.156
973.400, 0.157
973.500, 0.164
973.600, 0.161
973.700, 0.151
973.800, 0.156
973.900, 0.147
974.000, 0.168
974.100, 0.184
974.200, 0.192
974.300, 0.200
974.400, 0.165
974.500, 0.159
974.600, 0.150
974.700, 0.171
974.800, 0.151
974.900, 0.172
975.000, 0.203
975.100, 0.192
975.200, 0.165
975.300, 0.181
975.400, 0.155
975.500, 0.175
975.600, 0.158
975.700, 0.162
975.800, 0.149
975.900, 0.150
976.000, 0.147
976.100, 0.166
976.200, 0.126
976.300, 0.132
976.400, 0.146
976.500, 0.152
976.600, 0.122
976.700, 0.117
976.800, 0.136
976.900, 0.125
977.000, 0.131
977.100, 0.139
977.200, 0.144
977.300, 0.122
977.400, 0.151
977.500, 0.137
977.600, 0.123
977.700, 0.121
977.800, 0.107
977.900, 0.128
978.000, 0.112
978.100, 0.115
978.200, 0.126
978.300, 0.132
978.400, 0.140
978.500, 0.147
978.600, 0.146
978.700, 0.143
978.800, 0.116
978.900, 0.120
979.000, 0.122
979.100, 0.126
979.200, 0.124
979.300, 0.131
979.400, 0.146
979.500, 0.148
979.600, 0.149
979.700, 0.151
979.800, 0.127
979.900, 0.143
980.000, 0.151
980.100, 0.137
980.200, 0.122
980.300, 0.136
980.400, 0.150
980.500, 0.144
980.600, 0.168
980.700, 0.143
980.800, 0.135
980.900, 0.127
981.000, 0.140
981.100, 0.150
981.200, 0.152
981.300, 0.138
981.400, 0.130
981.500, 0.137
981.600, 0.142
981.700, 0.130
981.800, 0.152
981.900, 0.144
982.000, 0.161
982.100, 0.140
982.200, 0.150
982.300, 0.151
982.400, 0.168
982.500, 0.157
982.600, 0.158
982.700, 0.143
982.800, 0.157
982.900, 0.168
983.000, 0.158
983.100, 0.137
983.200, 0.145
983.300, 0.151
983.400, 0.155
983.500, 0.151
983.600, 0.147
983.700, 0.144
983.800, 0.157
983.900, 0.147
984.000, 0.161
984.100, 0.141
984.200, 0.118
984.300, 0.112
984.400, 0.116
984.500, 0.150
984.600, 0.154
984.700, 0.175
984.800, 0.165
984.900, 0.182
985.000, 0.155
985.100, 0.159
985.200, 0.171
985.300, 0.176
985.400, 0.158
985.500, 0.156
985.600, 0.197
985.700, 0.173
985.800, 0.184
985.900, 0.177
986.000, 0.185
986.100, 0.185
986.200, 0.177
986.300, 0.173
986.400, 0.179
986.500, 0.183
986.600, 0.211
986.700, 0.189
986.800, 0.173
986.900, 0.187
987.000, 0.175
987.100, 0.180
987.200, 0.177
987.300, 0.186
987.400, 0.183
987.500, 0.184
987.600, 0.191
987.700, 0.169
987.800, 0.174
987.900, 0.161
988.000, 0.170
988.100, 0.177
988.200, 0.156
988.300, 0.158
988.400, 0.154
988.500, 0.177
988.600, 0.170
988.700, 0.173
988.800, 0.166
988.900, 0.148
989.000, 0.162
989.100, 0.147
989.200, 0.158
989.300, 0.174
989.400, 0.188
989.500, 0.190
989.600, 0.185
989.700, 0.196
989.800, 0.178
989.900, 0.192
990.000, 0.203
990.100, 0.190
990.200, 0.195
990.300, 0.204
990.400, 0.174
990.500, 0.177
990.600, 0.178
990.700, 0.174
990.800, 0.186
990.900, 0.182
991.000, 0.184
991.100, 0.180
991.200, 0.187
991.300, 0.187
991.400, 0.162
991.500, 0.184
991.600, 0.191
991.700, 0.164
991.800, 0.163
991.900, 0.146
992.000, 0.147
992.100, 0.175
992.200, 0.180
992.300, 0.171
992.400, 0.162
992.500, 0.172
992.600, 0.170
992.700, 0.158
992.800, 0.184
992.900, 0.164
993.000, 0.168
993.100, 0.147
993.200, 0.163
993.300, 0.192
993.400, 0.174
993.500, 0.168
993.600, 0.134
993.700, 0.155
993.800, 0.158
993.900, 0.137
994.000, 0.167
994.100, 0.165
994.200, 0.166
994.300, 0.166
994.400, 0.149
994.500, 0.175
994.600, 0.148
994.700, 0.146
994.800, 0.149
994.900, 0.131
995.000, 0.159
995.100, 0.112
995.200, 0.119
995.300, 0.127
995.400, 0.133
995.500, 0.140
995.600, 0.133
995.700, 0.126
995.800, 0.135
995.900, 0.144
996.000, 0.129
996.100, 0.137
996.200, 0.119
996.300, 0.133
996.400, 0.132
996.500, 0.132
996.600, 0.124
996.700, 0.118
996.800, 0.117
996.900, 0.104
997.000, 0.111
997.100, 0.109
997.200, 0.097
997.300, 0.091
997.400, 0.093
997.500, 0.092
997.600, 0.093
997.700, 0.086
997.800, 0.087
997.900, 0.077
998.000, 0.098
998.100, 0.100
998.200, 0.087
998.300, 0.088
998.400, 0.087
998.500, 0.118
998.600, 0.127
998.700, 0.095
998.800, 0.117
998.900, 0.115
999.000, 0.117
999.100, 0.106
999.200, 0.116
999.300, 0.101
999.400, 0.094
999.500, 0.092
999.600, 0.109
999.700, 0.087
999.800, 0.078
999.900, 0.009
1000.000, 0.000
