Time (ps), RMSD (nm)
0.000, 0.001
0.100, 0.117
0.200, 0.120
0.300, 0.121
0.400, 0.119
0.500, 0.122
0.600, 0.113
0.700, 0.110
0.800, 0.111
0.900, 0.116
1.000, 0.112
1.100, 0.111
1.200, 0.122
1.300, 0.114
1.400, 0.115
1.500, 0.119
1.600, 0.115
1.700, 0.113
1.800, 0.119
1.900, 0.113
2.000, 0.121
2.100, 0.122
2.200, 0.118
2.300, 0.123
2.400, 0.116
2.500, 0.124
2.600, 0.120
2.700, 0.126
2.800, 0.132
2.900, 0.128
3.000, 0.126
3.100, 0.122
3.200, 0.125
3.300, 0.123
3.400, 0.122
3.500, 0.125
3.600, 0.127
3.700, 0.131
3.800, 0.127
3.900, 0.130
4.000, 0.118
4.100, 0.119
4.200, 0.118
4.300, 0.120
4.400, 0.108
4.500, 0.118
4.600, 0.120
4.700, 0.120
4.800, 0.117
4.900, 0.106
5.000, 0.115
5.100, 0.112
5.200, 0.118
5.300, 0.122
5.400, 0.118
5.500, 0.114
5.600, 0.124
5.700, 0.121
5.800, 0.117
5.900, 0.120
6.000, 0.116
6.100, 0.122
6.200, 0.121
6.300, 0.126
6.400, 0.124
6.500, 0.127
6.600, 0.123
6.700, 0.115
6.800, 0.127
6.900, 0.116
7.000, 0.107
7.100, 0.110
7.200, 0.121
7.300, 0.108
7.400, 0.121
7.500, 0.112
7.600, 0.117
7.700, 0.118
7.800, 0.120
7.900, 0.133
8.000, 0.115
8.100, 0.115
8.200, 0.117
8.300, 0.113
8.400, 0.112
8.500, 0.110
8.600, 0.112
8.700, 0.107
8.800, 0.111
8.900, 0.111
9.000, 0.115
9.100, 0.120
9.200, 0.130
9.300, 0.121
9.400, 0.127
9.500, 0.115
9.600, 0.126
9.700, 0.113
9.800, 0.112
9.900, 0.106
10.000, 0.119
10.100, 0.119
10.200, 0.104
10.300, 0.103
10.400, 0.106
10.500, 0.115
10.600, 0.106
10.700, 0.105
10.800, 0.110
10.900, 0.110
11.000, 0.113
11.100, 0.107
11.200, 0.108
11.300, 0.106
11.400, 0.103
11.500, 0.114
11.600, 0.113
11.700, 0.114
11.800, 0.112
11.900, 0.107
12.000, 0.107
12.100, 0.107
12.200, 0.108
12.300, 0.115
12.400, 0.108
12.500, 0.114
12.600, 0.113
12.700, 0.115
12.800, 0.115
12.900, 0.105
13.000, 0.108
13.100, 0.120
13.200, 0.105
13.300, 0.111
13.400, 0.105
13.500, 0.108
13.600, 0.113
13.700, 0.113
13.800, 0.108
13.900, 0.109
14.000, 0.115
14.100, 0.117
14.200, 0.111
14.300, 0.107
14.400, 0.113
14.500, 0.113
14.600, 0.114
14.700, 0.112
14.800, 0.110
14.900, 0.117
15.000, 0.118
15.100, 0.116
15.200, 0.115
15.300, 0.117
15.400, 0.121
15.500, 0.118
15.600, 0.114
15.700, 0.116
15.800, 0.112
15.900, 0.120
16.000, 0.117
16.100, 0.115
16.200, 0.121
16.300, 0.126
16.400, 0.121
16.500, 0.116
16.600, 0.119
16.700, 0.122
16.800, 0.117
16.900, 0.119
17.000, 0.114
17.100, 0.115
17.200, 0.113
17.300, 0.118
17.400, 0.113
17.500, 0.117
17.600, 0.119
17.700, 0.119
17.800, 0.120
17.900, 0.124
18.000, 0.121
18.100, 0.133
18.200, 0.117
18.300, 0.122
18.400, 0.124
18.500, 0.128
18.600, 0.127
18.700, 0.121
18.800, 0.122
18.900, 0.119
19.000, 0.117
19.100, 0.126
19.200, 0.132
19.300, 0.121
19.400, 0.121
19.500, 0.118
19.600, 0.121
19.700, 0.125
19.800, 0.124
19.900, 0.121
20.000, 0.118
20.100, 0.126
20.200, 0.123
20.300, 0.116
20.400, 0.120
20.500, 0.121
20.600, 0.116
20.700, 0.110
20.800, 0.126
20.900, 0.125
21.000, 0.119
21.100, 0.118
21.200, 0.118
21.300, 0.117
21.400, 0.122
21.500, 0.122
21.600, 0.121
21.700, 0.121
21.800, 0.110
21.900, 0.117
22.000, 0.117
22.100, 0.122
22.200, 0.123
22.300, 0.118
22.400, 0.124
22.500, 0.134
22.600, 0.131
22.700, 0.131
22.800, 0.131
22.900, 0.128
23.000, 0.130
23.100, 0.134
23.200, 0.133
23.300, 0.136
23.400, 0.130
23.500, 0.140
23.600, 0.132
23.700, 0.131
23.800, 0.140
23.900, 0.125
24.000, 0.128
24.100, 0.125
24.200, 0.128
24.300, 0.128
24.400, 0.135
24.500, 0.140
24.600, 0.135
24.700, 0.132
24.800, 0.135
24.900, 0.137
25.000, 0.147
25.100, 0.135
25.200, 0.140
25.300, 0.142
25.400, 0.128
25.500, 0.125
25.600, 0.135
25.700, 0.129
25.800, 0.130
25.900, 0.126
26.000, 0.123
26.100, 0.118
26.200, 0.120
26.300, 0.112
26.400, 0.113
26.500, 0.119
26.600, 0.125
26.700, 0.115
26.800, 0.124
26.900, 0.118
27.000, 0.125
27.100, 0.142
27.200, 0.121
27.300, 0.120
27.400, 0.120
27.500, 0.114
27.600, 0.119
27.700, 0.118
27.800, 0.112
27.900, 0.110
28.000, 0.108
28.100, 0.115
28.200, 0.118
28.300, 0.113
28.400, 0.116
28.500, 0.111
28.600, 0.108
28.700, 0.114
28.800, 0.109
28.900, 0.112
29.000, 0.116
29.100, 0.123
29.200, 0.117
29.300, 0.117
29.400, 0.125
29.500, 0.126
29.600, 0.132
29.700, 0.123
29.800, 0.119
29.900, 0.114
30.000, 0.117
30.100, 0.116
30.200, 0.122
30.300, 0.112
30.400, 0.124
30.500, 0.119
30.600, 0.127
30.700, 0.115
30.800, 0.126
30.900, 0.118
31.000, 0.116
31.100, 0.117
31.200, 0.120
31.300, 0.119
31.400, 0.130
31.500, 0.127
31.600, 0.120
31.700, 0.117
31.800, 0.119
31.900, 0.122
32.000, 0.117
32.100, 0.123
32.200, 0.124
32.300, 0.128
32.400, 0.120
32.500, 0.120
32.600, 0.124
32.700, 0.120
32.800, 0.125
32.900, 0.112
33.000, 0.111
33.100, 0.127
33.200, 0.118
33.300, 0.123
33.400, 0.120
33.500, 0.122
33.600, 0.123
33.700, 0.116
33.800, 0.118
33.900, 0.121
34.000, 0.122
34.100, 0.119
34.200, 0.125
34.300, 0.120
34.400, 0.120
34.500, 0.123
34.600, 0.121
34.700, 0.119
34.800, 0.116
34.900, 0.118
35.000, 0.109
35.100, 0.121
35.200, 0.127
35.300, 0.126
35.400, 0.118
35.500, 0.128
35.600, 0.128
35.700, 0.116
35.800, 0.123
35.900, 0.112
36.000, 0.118
36.100, 0.115
36.200, 0.117
36.300, 0.117
36.400, 0.116
36.500, 0.126
36.600, 0.115
36.700, 0.114
36.800, 0.119
36.900, 0.113
37.000, 0.111
37.100, 0.112
37.200, 0.124
37.300, 0.112
37.400, 0.112
37.500, 0.111
37.600, 0.116
37.700, 0.106
37.800, 0.116
37.900, 0.112
38.000, 0.112
38.100, 0.122
38.200, 0.117
38.300, 0.119
38.400, 0.112
38.500, 0.118
38.600, 0.122
38.700, 0.119
38.800, 0.116
38.900, 0.119
39.000, 0.116
39.100, 0.112
39.200, 0.116
39.300, 0.120
39.400, 0.115
39.500, 0.120
39.600, 0.114
39.700, 0.112
39.800, 0.113
39.900, 0.107
40.000, 0.110
40.100, 0.107
40.200, 0.110
40.300, 0.106
40.400, 0.100
40.500, 0.115
40.600, 0.110
40.700, 0.111
40.800, 0.107
40.900, 0.117
41.000, 0.118
41.100, 0.112
41.200, 0.115
41.300, 0.115
41.400, 0.112
41.500, 0.111
41.600, 0.119
41.700, 0.115
41.800, 0.125
41.900, 0.110
42.000, 0.108
42.100, 0.108
42.200, 0.111
42.300, 0.115
42.400, 0.115
42.500, 0.111
42.600, 0.116
42.700, 0.123
42.800, 0.119
42.900, 0.126
43.000, 0.117
43.100, 0.112
43.200, 0.115
43.300, 0.111
43.400, 0.110
43.500, 0.114
43.600, 0.115
43.700, 0.116
43.800, 0.113
43.900, 0.117
44.000, 0.117
44.100, 0.109
44.200, 0.103
44.300, 0.117
44.400, 0.110
44.500, 0.119
44.600, 0.126
44.700, 0.112
44.800, 0.120
44.900, 0.114
45.000, 0.115
45.100, 0.121
45.200, 0.123
45.300, 0.119
45.400, 0.116
45.500, 0.109
45.600, 0.109
45.700, 0.102
45.800, 0.111
45.900, 0.104
46.000, 0.109
46.100, 0.116
46.200, 0.114
46.300, 0.110
46.400, 0.109
46.500, 0.107
46.600, 0.110
46.700, 0.107
46.800, 0.109
46.900, 0.117
47.000, 0.109
47.100, 0.110
47.200, 0.108
47.300, 0.105
47.400, 0.108
47.500, 0.113
47.600, 0.115
47.700, 0.104
47.800, 0.110
47.900, 0.107
48.000, 0.119
48.100, 0.120
48.200, 0.107
48.300, 0.118
48.400, 0.117
48.500, 0.123
48.600, 0.117
48.700, 0.107
48.800, 0.117
48.900, 0.109
49.000, 0.109
49.100, 0.118
49.200, 0.114
49.300, 0.109
49.400, 0.105
49.500, 0.118
49.600, 0.114
49.700, 0.112
49.800, 0.107
49.900, 0.116
50.000, 0.108
50.100, 0.113
50.200, 0.110
50.300, 0.112
50.400, 0.110
50.500, 0.116
50.600, 0.114
50.700, 0.113
50.800, 0.119
50.900, 0.112
51.000, 0.114
51.100, 0.117
51.200, 0.112
51.300, 0.115
51.400, 0.112
51.500, 0.122
51.600, 0.102
51.700, 0.105
51.800, 0.109
51.900, 0.109
52.000, 0.105
52.100, 0.112
52.200, 0.112
52.300, 0.114
52.400, 0.109
52.500, 0.106
52.600, 0.109
52.700, 0.106
52.800, 0.104
52.900, 0.096
53.000, 0.110
53.100, 0.109
53.200, 0.105
53.300, 0.108
53.400, 0.104
53.500, 0.115
53.600, 0.117
53.700, 0.112
53.800, 0.112
53.900, 0.111
54.000, 0.115
54.100, 0.115
54.200, 0.105
54.300, 0.110
54.400, 0.119
54.500, 0.120
54.600, 0.119
54.700, 0.123
54.800, 0.116
54.900, 0.110
55.000, 0.115
55.100, 0.113
55.200, 0.109
55.300, 0.111
55.400, 0.112
55.500, 0.123
55.600, 0.122
55.700, 0.115
55.800, 0.116
55.900, 0.118
56.000, 0.115
56.100, 0.116
56.200, 0.111
56.300, 0.118
56.400, 0.111
56.500, 0.113
56.600, 0.114
56.700, 0.107
56.800, 0.113
56.900, 0.111
57.000, 0.104
57.100, 0.102
57.200, 0.107
57.300, 0.108
57.400, 0.110
57.500, 0.107
57.600, 0.107
57.700, 0.112
57.800, 0.109
57.900, 0.114
58.000, 0.110
58.100, 0.105
58.200, 0.111
58.300, 0.116
58.400, 0.114
58.500, 0.125
58.600, 0.114
58.700, 0.117
58.800, 0.112
58.900, 0.115
59.000, 0.110
59.100, 0.114
59.200, 0.107
59.300, 0.119
59.400, 0.118
59.500, 0.108
59.600, 0.115
59.700, 0.126
59.800, 0.115
59.900, 0.117
60.000, 0.111
60.100, 0.124
60.200, 0.119
60.300, 0.120
60.400, 0.113
60.500, 0.124
60.600, 0.113
60.700, 0.113
60.800, 0.116
60.900, 0.117
61.000, 0.109
61.100, 0.110
61.200, 0.110
61.300, 0.116
61.400, 0.113
61.500, 0.115
61.600, 0.127
61.700, 0.116
61.800, 0.112
61.900, 0.117
62.000, 0.118
62.100, 0.113
62.200, 0.112
62.300, 0.117
62.400, 0.114
62.500, 0.126
62.600, 0.117
62.700, 0.121
62.800, 0.109
62.900, 0.117
63.000, 0.114
63.100, 0.120
63.200, 0.127
63.300, 0.120
63.400, 0.121
63.500, 0.125
63.600, 0.119
63.700, 0.119
63.800, 0.117
63.900, 0.116
64.000, 0.131
64.100, 0.134
64.200, 0.120
64.300, 0.117
64.400, 0.123
64.500, 0.119
64.600, 0.126
64.700, 0.117
64.800, 0.122
64.900, 0.120
65.000, 0.117
65.100, 0.111
65.200, 0.116
65.300, 0.118
65.400, 0.125
65.500, 0.120
65.600, 0.138
65.700, 0.122
65.800, 0.115
65.900, 0.123
66.000, 0.123
66.100, 0.121
66.200, 0.124
66.300, 0.124
66.400, 0.114
66.500, 0.108
66.600, 0.117
66.700, 0.115
66.800, 0.125
66.900, 0.124
67.000, 0.122
67.100, 0.132
67.200, 0.125
67.300, 0.120
67.400, 0.122
67.500, 0.120
67.600, 0.117
67.700, 0.126
67.800, 0.127
67.900, 0.132
68.000, 0.131
68.100, 0.125
68.200, 0.128
68.300, 0.118
68.400, 0.113
68.500, 0.121
68.600, 0.123
68.700, 0.119
68.800, 0.115
68.900, 0.117
69.000, 0.119
69.100, 0.120
69.200, 0.110
69.300, 0.122
69.400, 0.114
69.500, 0.122
69.600, 0.124
69.700, 0.110
69.800, 0.121
69.900, 0.127
70.000, 0.112
70.100, 0.117
70.200, 0.125
70.300, 0.112
70.400, 0.110
70.500, 0.120
70.600, 0.120
70.700, 0.120
70.800, 0.115
70.900, 0.110
71.000, 0.112
71.100, 0.108
71.200, 0.113
71.300, 0.111
71.400, 0.118
71.500, 0.114
71.600, 0.124
71.700, 0.110
71.800, 0.120
71.900, 0.113
72.000, 0.106
72.100, 0.119
72.200, 0.111
72.300, 0.115
72.400, 0.116
72.500, 0.112
72.600, 0.112
72.700, 0.121
72.800, 0.108
72.900, 0.113
73.000, 0.109
73.100, 0.116
73.200, 0.122
73.300, 0.116
73.400, 0.112
73.500, 0.119
73.600, 0.119
73.700, 0.114
73.800, 0.117
73.900, 0.118
74.000, 0.108
74.100, 0.114
74.200, 0.112
74.300, 0.115
74.400, 0.117
74.500, 0.124
74.600, 0.107
74.700, 0.116
74.800, 0.120
74.900, 0.109
75.000, 0.114
75.100, 0.103
75.200, 0.113
75.300, 0.116
75.400, 0.111
75.500, 0.115
75.600, 0.121
75.700, 0.119
75.800, 0.118
75.900, 0.122
76.000, 0.122
76.100, 0.122
76.200, 0.120
76.300, 0.119
76.400, 0.123
76.500, 0.123
76.600, 0.115
76.700, 0.125
76.800, 0.124
76.900, 0.117
77.000, 0.118
77.100, 0.118
77.200, 0.112
77.300, 0.116
77.400, 0.115
77.500, 0.114
77.600, 0.112
77.700, 0.119
77.800, 0.111
77.900, 0.122
78.000, 0.120
78.100, 0.119
78.200, 0.110
78.300, 0.110
78.400, 0.125
78.500, 0.120
78.600, 0.126
78.700, 0.129
78.800, 0.114
78.900, 0.121
79.000, 0.124
79.100, 0.129
79.200, 0.119
79.300, 0.121
79.400, 0.113
79.500, 0.121
79.600, 0.112
79.700, 0.114
79.800, 0.114
79.900, 0.111
80.000, 0.112
80.100, 0.112
80.200, 0.106
80.300, 0.107
80.400, 0.102
80.500, 0.110
80.600, 0.109
80.700, 0.112
80.800, 0.107
80.900, 0.115
81.000, 0.118
81.100, 0.105
81.200, 0.119
81.300, 0.112
81.400, 0.107
81.500, 0.117
81.600, 0.114
81.700, 0.116
81.800, 0.111
81.900, 0.113
82.000, 0.110
82.100, 0.113
82.200, 0.127
82.300, 0.132
82.400, 0.135
82.500, 0.112
82.600, 0.120
82.700, 0.122
82.800, 0.110
82.900, 0.113
83.000, 0.125
83.100, 0.122
83.200, 0.114
83.300, 0.113
83.400, 0.102
83.500, 0.126
83.600, 0.116
83.700, 0.121
83.800, 0.113
83.900, 0.116
84.000, 0.118
84.100, 0.119
84.200, 0.118
84.300, 0.118
84.400, 0.115
84.500, 0.121
84.600, 0.126
84.700, 0.116
84.800, 0.120
84.900, 0.124
85.000, 0.117
85.100, 0.129
85.200, 0.116
85.300, 0.112
85.400, 0.123
85.500, 0.122
85.600, 0.122
85.700, 0.124
85.800, 0.117
85.900, 0.109
86.000, 0.120
86.100, 0.115
86.200, 0.117
86.300, 0.119
86.400, 0.113
86.500, 0.109
86.600, 0.111
86.700, 0.114
86.800, 0.118
86.900, 0.115
87.000, 0.112
87.100, 0.119
87.200, 0.109
87.300, 0.107
87.400, 0.123
87.500, 0.119
87.600, 0.114
87.700, 0.106
87.800, 0.107
87.900, 0.112
88.000, 0.115
88.100, 0.105
88.200, 0.114
88.300, 0.110
88.400, 0.110
88.500, 0.107
88.600, 0.108
88.700, 0.111
88.800, 0.106
88.900, 0.106
89.000, 0.112
89.100, 0.119
89.200, 0.121
89.300, 0.118
89.400, 0.126
89.500, 0.122
89.600, 0.121
89.700, 0.123
89.800, 0.118
89.900, 0.122
90.000, 0.121
90.100, 0.117
90.200, 0.122
90.300, 0.116
90.400, 0.131
90.500, 0.119
90.600, 0.126
90.700, 0.120
90.800, 0.119
90.900, 0.114
91.000, 0.119
91.100, 0.111
91.200, 0.122
91.300, 0.122
91.400, 0.125
91.500, 0.119
91.600, 0.127
91.700, 0.118
91.800, 0.117
91.900, 0.122
92.000, 0.125
92.100, 0.128
92.200, 0.118
92.300, 0.119
92.400, 0.122
92.500, 0.128
92.600, 0.124
92.700, 0.124
92.800, 0.117
92.900, 0.119
93.000, 0.106
93.100, 0.111
93.200, 0.114
93.300, 0.120
93.400, 0.120
93.500, 0.118
93.600, 0.114
93.700, 0.116
93.800, 0.121
93.900, 0.110
94.000, 0.118
94.100, 0.111
94.200, 0.118
94.300, 0.115
94.400, 0.133
94.500, 0.118
94.600, 0.120
94.700, 0.117
94.800, 0.117
94.900, 0.118
95.000, 0.119
95.100, 0.119
95.200, 0.118
95.300, 0.120
95.400, 0.118
95.500, 0.135
95.600, 0.123
95.700, 0.119
95.800, 0.118
95.900, 0.120
96.000, 0.120
96.100, 0.116
96.200, 0.120
96.300, 0.113
96.400, 0.117
96.500, 0.125
96.600, 0.119
96.700, 0.130
96.800, 0.124
96.900, 0.121
97.000, 0.140
97.100, 0.119
97.200, 0.116
97.300, 0.133
97.400, 0.123
97.500, 0.126
97.600, 0.121
97.700, 0.117
97.800, 0.121
97.900, 0.126
98.000, 0.126
98.100, 0.117
98.200, 0.127
98.300, 0.119
98.400, 0.115
98.500, 0.120
98.600, 0.119
98.700, 0.116
98.800, 0.115
98.900, 0.122
99.000, 0.119
99.100, 0.111
99.200, 0.112
99.300, 0.125
99.400, 0.121
99.500, 0.121
99.600, 0.118
99.700, 0.119
99.800, 0.124
99.900, 0.118
100.000, 0.120
100.100, 0.119
100.200, 0.120
100.300, 0.117
100.400, 0.110
100.500, 0.120
100.600, 0.111
100.700, 0.107
100.800, 0.111
100.900, 0.109
101.000, 0.111
101.100, 0.107
101.200, 0.113
101.300, 0.111
101.400, 0.115
101.500, 0.113
101.600, 0.112
101.700, 0.112
101.800, 0.120
101.900, 0.118
102.000, 0.122
102.100, 0.124
102.200, 0.119
102.300, 0.114
102.400, 0.121
102.500, 0.122
102.600, 0.112
102.700, 0.112
102.800, 0.126
102.900, 0.116
103.000, 0.121
103.100, 0.121
103.200, 0.128
103.300, 0.114
103.400, 0.125
103.500, 0.118
103.600, 0.131
103.700, 0.118
103.800, 0.119
103.900, 0.123
104.000, 0.116
104.100, 0.125
104.200, 0.117
104.300, 0.116
104.400, 0.111
104.500, 0.116
104.600, 0.125
104.700, 0.119
104.800, 0.123
104.900, 0.126
105.000, 0.119
105.100, 0.126
105.200, 0.122
105.300, 0.121
105.400, 0.125
105.500, 0.119
105.600, 0.125
105.700, 0.127
105.800, 0.127
105.900, 0.125
106.000, 0.130
106.100, 0.139
106.200, 0.125
106.300, 0.118
106.400, 0.134
106.500, 0.126
106.600, 0.118
106.700, 0.117
106.800, 0.114
106.900, 0.117
107.000, 0.119
107.100, 0.124
107.200, 0.126
107.300, 0.122
107.400, 0.122
107.500, 0.123
107.600, 0.126
107.700, 0.131
107.800, 0.117
107.900, 0.119
108.000, 0.137
108.100, 0.129
108.200, 0.120
108.300, 0.117
108.400, 0.121
108.500, 0.118
108.600, 0.118
108.700, 0.120
108.800, 0.131
108.900, 0.130
109.000, 0.131
109.100, 0.128
109.200, 0.129
109.300, 0.125
109.400, 0.126
109.500, 0.123
109.600, 0.127
109.700, 0.129
109.800, 0.122
109.900, 0.132
110.000, 0.124
110.100, 0.119
110.200, 0.118
110.300, 0.127
110.400, 0.126
110.500, 0.116
110.600, 0.123
110.700, 0.128
110.800, 0.121
110.900, 0.119
111.000, 0.125
111.100, 0.117
111.200, 0.127
111.300, 0.123
111.400, 0.124
111.500, 0.129
111.600, 0.124
111.700, 0.123
111.800, 0.121
111.900, 0.129
112.000, 0.123
112.100, 0.125
112.200, 0.131
112.300, 0.127
112.400, 0.128
112.500, 0.125
112.600, 0.131
112.700, 0.117
112.800, 0.119
112.900, 0.128
113.000, 0.126
113.100, 0.128
113.200, 0.133
113.300, 0.135
113.400, 0.133
113.500, 0.129
113.600, 0.126
113.700, 0.120
113.800, 0.131
113.900, 0.133
114.000, 0.123
114.100, 0.127
114.200, 0.121
114.300, 0.127
114.400, 0.126
114.500, 0.128
114.600, 0.140
114.700, 0.133
114.800, 0.127
114.900, 0.130
115.000, 0.131
115.100, 0.119
115.200, 0.118
115.300, 0.121
115.400, 0.123
115.500, 0.130
115.600, 0.131
115.700, 0.129
115.800, 0.139
115.900, 0.127
116.000, 0.129
116.100, 0.134
116.200, 0.132
116.300, 0.135
116.400, 0.145
116.500, 0.141
116.600, 0.137
116.700, 0.128
116.800, 0.140
116.900, 0.126
117.000, 0.128
117.100, 0.125
117.200, 0.126
117.300, 0.129
117.400, 0.128
117.500, 0.124
117.600, 0.126
117.700, 0.127
117.800, 0.123
117.900, 0.136
118.000, 0.128
118.100, 0.126
118.200, 0.126
118.300, 0.129
118.400, 0.133
118.500, 0.139
118.600, 0.126
118.700, 0.128
118.800, 0.134
118.900, 0.125
119.000, 0.120
119.100, 0.128
119.200, 0.124
119.300, 0.122
119.400, 0.118
119.500, 0.125
119.600, 0.134
119.700, 0.134
119.800, 0.131
119.900, 0.138
120.000, 0.141
120.100, 0.135
120.200, 0.126
120.300, 0.132
120.400, 0.133
120.500, 0.134
120.600, 0.128
120.700, 0.138
120.800, 0.134
120.900, 0.140
121.000, 0.130
121.100, 0.144
121.200, 0.141
121.300, 0.143
121.400, 0.141
121.500, 0.129
121.600, 0.128
121.700, 0.124
121.800, 0.124
121.900, 0.135
122.000, 0.121
122.100, 0.132
122.200, 0.132
122.300, 0.116
122.400, 0.127
122.500, 0.128
122.600, 0.121
122.700, 0.112
122.800, 0.122
122.900, 0.120
123.000, 0.125
123.100, 0.126
123.200, 0.121
123.300, 0.124
123.400, 0.114
123.500, 0.125
123.600, 0.115
123.700, 0.124
123.800, 0.129
123.900, 0.136
124.000, 0.129
124.100, 0.135
124.200, 0.131
124.300, 0.118
124.400, 0.117
124.500, 0.127
124.600, 0.121
124.700, 0.119
124.800, 0.125
124.900, 0.125
125.000, 0.124
125.100, 0.137
125.200, 0.123
125.300, 0.125
125.400, 0.132
125.500, 0.125
125.600, 0.122
125.700, 0.129
125.800, 0.125
125.900, 0.143
126.000, 0.131
126.100, 0.125
126.200, 0.131
126.300, 0.132
126.400, 0.125
126.500, 0.134
126.600, 0.116
126.700, 0.122
126.800, 0.123
126.900, 0.124
127.000, 0.116
127.100, 0.123
127.200, 0.125
127.300, 0.120
127.400, 0.125
127.500, 0.128
127.600, 0.130
127.700, 0.126
127.800, 0.122
127.900, 0.116
128.000, 0.121
128.100, 0.122
128.200, 0.126
128.300, 0.115
128.400, 0.119
128.500, 0.120
128.600, 0.116
128.700, 0.123
128.800, 0.117
128.900, 0.126
129.000, 0.125
129.100, 0.119
129.200, 0.114
129.300, 0.115
129.400, 0.120
129.500, 0.126
129.600, 0.114
129.700, 0.107
129.800, 0.114
129.900, 0.109
130.000, 0.121
130.100, 0.114
130.200, 0.114
130.300, 0.118
130.400, 0.120
130.500, 0.123
130.600, 0.121
130.700, 0.118
130.800, 0.117
130.900, 0.126
131.000, 0.130
131.100, 0.128
131.200, 0.116
131.300, 0.115
131.400, 0.119
131.500, 0.116
131.600, 0.113
131.700, 0.120
131.800, 0.132
131.900, 0.121
132.000, 0.108
132.100, 0.124
132.200, 0.118
132.300, 0.128
132.400, 0.118
132.500, 0.119
132.600, 0.118
132.700, 0.128
132.800, 0.119
132.900, 0.114
133.000, 0.119
133.100, 0.101
133.200, 0.119
133.300, 0.114
133.400, 0.110
133.500, 0.119
133.600, 0.121
133.700, 0.123
133.800, 0.121
133.900, 0.120
134.000, 0.120
134.100, 0.131
134.200, 0.130
134.300, 0.122
134.400, 0.119
134.500, 0.123
134.600, 0.119
134.700, 0.125
134.800, 0.138
134.900, 0.128
135.000, 0.125
135.100, 0.119
135.200, 0.114
135.300, 0.132
135.400, 0.134
135.500, 0.124
135.600, 0.129
135.700, 0.135
135.800, 0.119
135.900, 0.125
136.000, 0.121
136.100, 0.130
136.200, 0.129
136.300, 0.115
136.400, 0.125
136.500, 0.133
136.600, 0.124
136.700, 0.133
136.800, 0.122
136.900, 0.114
137.000, 0.124
137.100, 0.119
137.200, 0.129
137.300, 0.120
137.400, 0.134
137.500, 0.120
137.600, 0.114
137.700, 0.129
137.800, 0.125
137.900, 0.122
138.000, 0.126
138.100, 0.123
138.200, 0.125
138.300, 0.123
138.400, 0.132
138.500, 0.130
138.600, 0.134
138.700, 0.124
138.800, 0.122
138.900, 0.133
139.000, 0.134
139.100, 0.128
139.200, 0.122
139.300, 0.122
139.400, 0.117
139.500, 0.116
139.600, 0.126
139.700, 0.115
139.800, 0.117
139.900, 0.115
140.000, 0.117
140.100, 0.117
140.200, 0.110
140.300, 0.109
140.400, 0.116
140.500, 0.125
140.600, 0.117
140.700, 0.123
140.800, 0.119
140.900, 0.118
141.000, 0.123
141.100, 0.124
141.200, 0.117
141.300, 0.116
141.400, 0.125
141.500, 0.125
141.600, 0.118
141.700, 0.121
141.800, 0.125
141.900, 0.133
142.000, 0.118
142.100, 0.126
142.200, 0.121
142.300, 0.120
142.400, 0.116
142.500, 0.123
142.600, 0.124
142.700, 0.122
142.800, 0.120
142.900, 0.119
143.000, 0.125
143.100, 0.123
143.200, 0.116
143.300, 0.120
143.400, 0.123
143.500, 0.124
143.600, 0.121
143.700, 0.134
143.800, 0.133
143.900, 0.123
144.000, 0.127
144.100, 0.132
144.200, 0.133
144.300, 0.117
144.400, 0.112
144.500, 0.122
144.600, 0.117
144.700, 0.122
144.800, 0.119
144.900, 0.127
145.000, 0.122
145.100, 0.120
145.200, 0.109
145.300, 0.118
145.400, 0.120
145.500, 0.125
145.600, 0.123
145.700, 0.130
145.800, 0.122
145.900, 0.122
146.000, 0.119
146.100, 0.123
146.200, 0.134
146.300, 0.127
146.400, 0.124
146.500, 0.121
146.600, 0.130
146.700, 0.123
146.800, 0.120
146.900, 0.123
147.000, 0.131
147.100, 0.117
147.200, 0.128
147.300, 0.129
147.400, 0.121
147.500, 0.125
147.600, 0.124
147.700, 0.124
147.800, 0.127
147.900, 0.122
148.000, 0.132
148.100, 0.123
148.200, 0.130
148.300, 0.129
148.400, 0.132
148.500, 0.126
148.600, 0.128
148.700, 0.122
148.800, 0.123
148.900, 0.123
149.000, 0.121
149.100, 0.123
149.200, 0.124
149.300, 0.125
149.400, 0.130
149.500, 0.125
149.600, 0.121
149.700, 0.117
149.800, 0.123
149.900, 0.125
150.000, 0.129
150.100, 0.132
150.200, 0.125
150.300, 0.124
150.400, 0.121
150.500, 0.125
150.600, 0.129
150.700, 0.125
150.800, 0.125
150.900, 0.128
151.000, 0.120
151.100, 0.122
151.200, 0.122
151.300, 0.129
151.400, 0.129
151.500, 0.131
151.600, 0.136
151.700, 0.133
151.800, 0.125
151.900, 0.134
152.000, 0.131
152.100, 0.124
152.200, 0.126
152.300, 0.126
152.400, 0.125
152.500, 0.128
152.600, 0.118
152.700, 0.124
152.800, 0.131
152.900, 0.127
153.000, 0.134
153.100, 0.136
153.200, 0.132
153.300, 0.129
153.400, 0.139
153.500, 0.132
153.600, 0.130
153.700, 0.129
153.800, 0.130
153.900, 0.124
154.000, 0.127
154.100, 0.119
154.200, 0.129
154.300, 0.128
154.400, 0.127
154.500, 0.116
154.600, 0.114
154.700, 0.128
154.800, 0.120
154.900, 0.126
155.000, 0.123
155.100, 0.131
155.200, 0.139
155.300, 0.125
155.400, 0.124
155.500, 0.125
155.600, 0.126
155.700, 0.125
155.800, 0.130
155.900, 0.122
156.000, 0.123
156.100, 0.112
156.200, 0.114
156.300, 0.122
156.400, 0.130
156.500, 0.133
156.600, 0.117
156.700, 0.127
156.800, 0.119
156.900, 0.117
157.000, 0.128
157.100, 0.120
157.200, 0.120
157.300, 0.125
157.400, 0.128
157.500, 0.124
157.600, 0.127
157.700, 0.135
157.800, 0.138
157.900, 0.134
158.000, 0.133
158.100, 0.128
158.200, 0.129
158.300, 0.130
158.400, 0.120
158.500, 0.124
158.600, 0.132
158.700, 0.129
158.800, 0.123
158.900, 0.119
159.000, 0.120
159.100, 0.120
159.200, 0.129
159.300, 0.116
159.400, 0.133
159.500, 0.122
159.600, 0.133
159.700, 0.142
159.800, 0.139
159.900, 0.127
160.000, 0.126
160.100, 0.123
160.200, 0.123
160.300, 0.119
160.400, 0.129
160.500, 0.123
160.600, 0.116
160.700, 0.116
160.800, 0.123
160.900, 0.135
161.000, 0.129
161.100, 0.133
161.200, 0.126
161.300, 0.126
161.400, 0.127
161.500, 0.120
161.600, 0.124
161.700, 0.131
161.800, 0.122
161.900, 0.126
162.000, 0.125
162.100, 0.113
162.200, 0.114
162.300, 0.127
162.400, 0.127
162.500, 0.122
162.600, 0.121
162.700, 0.119
162.800, 0.121
162.900, 0.117
163.000, 0.119
163.100, 0.126
163.200, 0.120
163.300, 0.134
163.400, 0.119
163.500, 0.118
163.600, 0.122
163.700, 0.122
163.800, 0.126
163.900, 0.126
164.000, 0.126
164.100, 0.134
164.200, 0.139
164.300, 0.141
164.400, 0.147
164.500, 0.140
164.600, 0.128
164.700, 0.128
164.800, 0.130
164.900, 0.121
165.000, 0.126
165.100, 0.124
165.200, 0.129
165.300, 0.129
165.400, 0.131
165.500, 0.120
165.600, 0.117
165.700, 0.123
165.800, 0.125
165.900, 0.116
166.000, 0.125
166.100, 0.128
166.200, 0.140
166.300, 0.130
166.400, 0.130
166.500, 0.128
166.600, 0.124
166.700, 0.129
166.800, 0.131
166.900, 0.123
167.000, 0.128
167.100, 0.130
167.200, 0.120
167.300, 0.122
167.400, 0.122
167.500, 0.119
167.600, 0.123
167.700, 0.120
167.800, 0.127
167.900, 0.122
168.000, 0.119
168.100, 0.125
168.200, 0.126
168.300, 0.129
168.400, 0.132
168.500, 0.127
168.600, 0.120
168.700, 0.124
168.800, 0.121
168.900, 0.125
169.000, 0.124
169.100, 0.121
169.200, 0.125
169.300, 0.128
169.400, 0.133
169.500, 0.124
169.600, 0.131
169.700, 0.130
169.800, 0.129
169.900, 0.136
170.000, 0.121
170.100, 0.128
170.200, 0.132
170.300, 0.131
170.400, 0.124
170.500, 0.124
170.600, 0.125
170.700, 0.127
170.800, 0.125
170.900, 0.124
171.000, 0.123
171.100, 0.126
171.200, 0.117
171.300, 0.120
171.400, 0.125
171.500, 0.125
171.600, 0.118
171.700, 0.139
171.800, 0.124
171.900, 0.124
172.000, 0.128
172.100, 0.126
172.200, 0.129
172.300, 0.127
172.400, 0.123
172.500, 0.125
172.600, 0.120
172.700, 0.121
172.800, 0.136
172.900, 0.117
173.000, 0.125
173.100, 0.126
173.200, 0.118
173.300, 0.120
173.400, 0.138
173.500, 0.118
173.600, 0.121
173.700, 0.132
173.800, 0.120
173.900, 0.111
174.000, 0.124
174.100, 0.116
174.200, 0.111
174.300, 0.116
174.400, 0.122
174.500, 0.124
174.600, 0.108
174.700, 0.119
174.800, 0.112
174.900, 0.114
175.000, 0.118
175.100, 0.121
175.200, 0.113
175.300, 0.115
175.400, 0.106
175.500, 0.116
175.600, 0.113
175.700, 0.111
175.800, 0.109
175.900, 0.112
176.000, 0.120
176.100, 0.122
176.200, 0.115
176.300, 0.112
176.400, 0.114
176.500, 0.109
176.600, 0.098
176.700, 0.109
176.800, 0.109
176.900, 0.110
177.000, 0.103
177.100, 0.110
177.200, 0.112
177.300, 0.110
177.400, 0.119
177.500, 0.123
177.600, 0.112
177.700, 0.107
177.800, 0.117
177.900, 0.116
178.000, 0.121
178.100, 0.122
178.200, 0.124
178.300, 0.119
178.400, 0.117
178.500, 0.119
178.600, 0.114
178.700, 0.124
178.800, 0.116
178.900, 0.116
179.000, 0.117
179.100, 0.114
179.200, 0.124
179.300, 0.125
179.400, 0.125
179.500, 0.121
179.600, 0.109
179.700, 0.116
179.800, 0.123
179.900, 0.125
180.000, 0.120
180.100, 0.121
180.200, 0.116
180.300, 0.113
180.400, 0.108
180.500, 0.115
180.600, 0.118
180.700, 0.122
180.800, 0.118
180.900, 0.110
181.000, 0.121
181.100, 0.132
181.200, 0.118
181.300, 0.115
181.400, 0.126
181.500, 0.118
181.600, 0.119
181.700, 0.115
181.800, 0.120
181.900, 0.124
182.000, 0.112
182.100, 0.111
182.200, 0.112
182.300, 0.121
182.400, 0.120
182.500, 0.120
182.600, 0.118
182.700, 0.112
182.800, 0.116
182.900, 0.111
183.000, 0.119
183.100, 0.117
183.200, 0.125
183.300, 0.133
183.400, 0.112
183.500, 0.104
183.600, 0.110
183.700, 0.118
183.800, 0.116
183.900, 0.121
184.000, 0.116
184.100, 0.113
184.200, 0.103
184.300, 0.119
184.400, 0.118
184.500, 0.118
184.600, 0.135
184.700, 0.122
184.800, 0.120
184.900, 0.105
185.000, 0.119
185.100, 0.109
185.200, 0.110
185.300, 0.121
185.400, 0.108
185.500, 0.107
185.600, 0.100
185.700, 0.108
185.800, 0.110
185.900, 0.105
186.000, 0.106
186.100, 0.108
186.200, 0.107
186.300, 0.113
186.400, 0.109
186.500, 0.112
186.600, 0.111
186.700, 0.105
186.800, 0.101
186.900, 0.105
187.000, 0.115
187.100, 0.111
187.200, 0.110
187.300, 0.112
187.400, 0.113
187.500, 0.108
187.600, 0.114
187.700, 0.115
187.800, 0.112
187.900, 0.111
188.000, 0.111
188.100, 0.111
188.200, 0.108
188.300, 0.106
188.400, 0.109
188.500, 0.110
188.600, 0.112
188.700, 0.112
188.800, 0.111
188.900, 0.110
189.000, 0.112
189.100, 0.108
189.200, 0.111
189.300, 0.112
189.400, 0.113
189.500, 0.112
189.600, 0.107
189.700, 0.108
189.800, 0.117
189.900, 0.117
190.000, 0.117
190.100, 0.113
190.200, 0.112
190.300, 0.118
190.400, 0.120
190.500, 0.115
190.600, 0.112
190.700, 0.115
190.800, 0.120
190.900, 0.115
191.000, 0.112
191.100, 0.110
191.200, 0.120
191.300, 0.103
191.400, 0.114
191.500, 0.112
191.600, 0.116
191.700, 0.115
191.800, 0.113
191.900, 0.110
192.000, 0.115
192.100, 0.108
192.200, 0.120
192.300, 0.121
192.400, 0.127
192.500, 0.128
192.600, 0.128
192.700, 0.123
192.800, 0.130
192.900, 0.126
193.000, 0.125
193.100, 0.112
193.200, 0.116
193.300, 0.118
193.400, 0.114
193.500, 0.112
193.600, 0.111
193.700, 0.109
193.800, 0.115
193.900, 0.118
194.000, 0.105
194.100, 0.114
194.200, 0.111
194.300, 0.118
194.400, 0.120
194.500, 0.113
194.600, 0.104
194.700, 0.120
194.800, 0.114
194.900, 0.112
195.000, 0.114
195.100, 0.115
195.200, 0.111
195.300, 0.112
195.400, 0.110
195.500, 0.111
195.600, 0.119
195.700, 0.114
195.800, 0.113
195.900, 0.109
196.000, 0.115
196.100, 0.122
196.200, 0.129
196.300, 0.116
196.400, 0.121
196.500, 0.116
196.600, 0.134
196.700, 0.117
196.800, 0.109
196.900, 0.116
197.000, 0.127
197.100, 0.123
197.200, 0.118
197.300, 0.120
197.400, 0.124
197.500, 0.119
197.600, 0.115
197.700, 0.122
197.800, 0.117
197.900, 0.121
198.000, 0.118
198.100, 0.114
198.200, 0.120
198.300, 0.116
198.400, 0.117
198.500, 0.118
198.600, 0.115
198.700, 0.115
198.800, 0.122
198.900, 0.125
199.000, 0.123
199.100, 0.118
199.200, 0.118
199.300, 0.127
199.400, 0.119
199.500, 0.124
199.600, 0.110
199.700, 0.111
199.800, 0.116
199.900, 0.123
200.000, 0.122
200.100, 0.117
200.200, 0.121
200.300, 0.121
200.400, 0.113
200.500, 0.120
200.600, 0.118
200.700, 0.112
200.800, 0.112
200.900, 0.122
201.000, 0.126
201.100, 0.130
201.200, 0.128
201.300, 0.118
201.400, 0.118
201.500, 0.115
201.600, 0.118
201.700, 0.119
201.800, 0.122
201.900, 0.118
202.000, 0.119
202.100, 0.120
202.200, 0.130
202.300, 0.136
202.400, 0.121
202.500, 0.123
202.600, 0.123
202.700, 0.119
202.800, 0.126
202.900, 0.115
203.000, 0.123
203.100, 0.119
203.200, 0.126
203.300, 0.120
203.400, 0.121
203.500, 0.120
203.600, 0.112
203.700, 0.118
203.800, 0.114
203.900, 0.117
204.000, 0.117
204.100, 0.121
204.200, 0.123
204.300, 0.121
204.400, 0.124
204.500, 0.128
204.600, 0.130
204.700, 0.132
204.800, 0.126
204.900, 0.129
205.000, 0.133
205.100, 0.131
205.200, 0.137
205.300, 0.130
205.400, 0.130
205.500, 0.123
205.600, 0.128
205.700, 0.130
205.800, 0.128
205.900, 0.136
206.000, 0.139
206.100, 0.128
206.200, 0.135
206.300, 0.131
206.400, 0.139
206.500, 0.134
206.600, 0.135
206.700, 0.136
206.800, 0.146
206.900, 0.127
207.000, 0.138
207.100, 0.141
207.200, 0.132
207.300, 0.123
207.400, 0.137
207.500, 0.147
207.600, 0.139
207.700, 0.139
207.800, 0.138
207.900, 0.130
208.000, 0.138
208.100, 0.140
208.200, 0.138
208.300, 0.139
208.400, 0.134
208.500, 0.139
208.600, 0.129
208.700, 0.144
208.800, 0.138
208.900, 0.142
209.000, 0.132
209.100, 0.130
209.200, 0.128
209.300, 0.139
209.400, 0.138
209.500, 0.134
209.600, 0.132
209.700, 0.125
209.800, 0.135
209.900, 0.132
210.000, 0.131
210.100, 0.130
210.200, 0.124
210.300, 0.125
210.400, 0.130
210.500, 0.133
210.600, 0.137
210.700, 0.134
210.800, 0.142
210.900, 0.138
211.000, 0.147
211.100, 0.135
211.200, 0.138
211.300, 0.134
211.400, 0.138
211.500, 0.127
211.600, 0.133
211.700, 0.134
211.800, 0.129
211.900, 0.127
212.000, 0.131
212.100, 0.137
212.200, 0.141
212.300, 0.137
212.400, 0.129
212.500, 0.143
212.600, 0.138
212.700, 0.143
212.800, 0.139
212.900, 0.136
213.000, 0.142
213.100, 0.134
213.200, 0.133
213.300, 0.136
213.400, 0.124
213.500, 0.133
213.600, 0.133
213.700, 0.132
213.800, 0.128
213.900, 0.126
214.000, 0.121
214.100, 0.132
214.200, 0.132
214.300, 0.130
214.400, 0.133
214.500, 0.133
214.600, 0.139
214.700, 0.136
214.800, 0.147
214.900, 0.136
215.000, 0.143
215.100, 0.141
215.200, 0.134
215.300, 0.137
215.400, 0.127
215.500, 0.127
215.600, 0.128
215.700, 0.127
215.800, 0.137
215.900, 0.126
216.000, 0.136
216.100, 0.132
216.200, 0.129
216.300, 0.128
216.400, 0.131
216.500, 0.132
216.600, 0.140
216.700, 0.143
216.800, 0.134
216.900, 0.127
217.000, 0.129
217.100, 0.130
217.200, 0.133
217.300, 0.125
217.400, 0.132
217.500, 0.134
217.600, 0.141
217.700, 0.133
217.800, 0.130
217.900, 0.131
218.000, 0.131
218.100, 0.140
218.200, 0.135
218.300, 0.132
218.400, 0.143
218.500, 0.118
218.600, 0.133
218.700, 0.132
218.800, 0.134
218.900, 0.132
219.000, 0.141
219.100, 0.133
219.200, 0.131
219.300, 0.127
219.400, 0.128
219.500, 0.139
219.600, 0.133
219.700, 0.134
219.800, 0.139
219.900, 0.139
220.000, 0.135
220.100, 0.141
220.200, 0.139
220.300, 0.136
220.400, 0.134
220.500, 0.130
220.600, 0.134
220.700, 0.135
220.800, 0.135
220.900, 0.139
221.000, 0.133
221.100, 0.131
221.200, 0.138
221.300, 0.142
221.400, 0.133
221.500, 0.130
221.600, 0.119
221.700, 0.129
221.800, 0.122
221.900, 0.125
222.000, 0.118
222.100, 0.121
222.200, 0.128
222.300, 0.124
222.400, 0.134
222.500, 0.121
222.600, 0.130
222.700, 0.134
222.800, 0.126
222.900, 0.124
223.000, 0.124
223.100, 0.126
223.200, 0.131
223.300, 0.132
223.400, 0.123
223.500, 0.125
223.600, 0.137
223.700, 0.122
223.800, 0.128
223.900, 0.122
224.000, 0.120
224.100, 0.125
224.200, 0.127
224.300, 0.129
224.400, 0.126
224.500, 0.128
224.600, 0.128
224.700, 0.136
224.800, 0.130
224.900, 0.125
225.000, 0.128
225.100, 0.130
225.200, 0.133
225.300, 0.133
225.400, 0.138
225.500, 0.131
225.600, 0.124
225.700, 0.125
225.800, 0.124
225.900, 0.130
226.000, 0.131
226.100, 0.127
226.200, 0.120
226.300, 0.124
226.400, 0.128
226.500, 0.124
226.600, 0.126
226.700, 0.119
226.800, 0.122
226.900, 0.133
227.000, 0.131
227.100, 0.127
227.200, 0.122
227.300, 0.124
227.400, 0.134
227.500, 0.134
227.600, 0.141
227.700, 0.133
227.800, 0.137
227.900, 0.126
228.000, 0.128
228.100, 0.126
228.200, 0.129
228.300, 0.135
228.400, 0.124
228.500, 0.129
228.600, 0.120
228.700, 0.123
228.800, 0.128
228.900, 0.128
229.000, 0.133
229.100, 0.131
229.200, 0.126
229.300, 0.127
229.400, 0.137
229.500, 0.129
229.600, 0.133
229.700, 0.130
229.800, 0.128
229.900, 0.130
230.000, 0.127
230.100, 0.135
230.200, 0.130
230.300, 0.132
230.400, 0.120
230.500, 0.135
230.600, 0.132
230.700, 0.145
230.800, 0.135
230.900, 0.137
231.000, 0.128
231.100, 0.128
231.200, 0.128
231.300, 0.123
231.400, 0.123
231.500, 0.132
231.600, 0.131
231.700, 0.118
231.800, 0.123
231.900, 0.114
232.000, 0.116
232.100, 0.113
232.200, 0.118
232.300, 0.122
232.400, 0.118
232.500, 0.125
232.600, 0.123
232.700, 0.123
232.800, 0.138
232.900, 0.129
233.000, 0.140
233.100, 0.133
233.200, 0.138
233.300, 0.133
233.400, 0.129
233.500, 0.129
233.600, 0.134
233.700, 0.134
233.800, 0.118
233.900, 0.121
234.000, 0.125
234.100, 0.118
234.200, 0.125
234.300, 0.120
234.400, 0.126
234.500, 0.140
234.600, 0.139
234.700, 0.125
234.800, 0.138
234.900, 0.123
235.000, 0.121
235.100, 0.120
235.200, 0.117
235.300, 0.124
235.400, 0.133
235.500, 0.129
235.600, 0.129
235.700, 0.121
235.800, 0.121
235.900, 0.116
236.000, 0.120
236.100, 0.124
236.200, 0.121
236.300, 0.121
236.400, 0.122
236.500, 0.124
236.600, 0.120
236.700, 0.125
236.800, 0.124
236.900, 0.122
237.000, 0.111
237.100, 0.120
237.200, 0.116
237.300, 0.119
237.400, 0.126
237.500, 0.126
237.600, 0.115
237.700, 0.111
237.800, 0.116
237.900, 0.121
238.000, 0.126
238.100, 0.129
238.200, 0.119
238.300, 0.117
238.400, 0.130
238.500, 0.124
238.600, 0.126
238.700, 0.129
238.800, 0.122
238.900, 0.119
239.000, 0.117
239.100, 0.117
239.200, 0.123
239.300, 0.119
239.400, 0.111
239.500, 0.109
239.600, 0.115
239.700, 0.114
239.800, 0.112
239.900, 0.126
240.000, 0.118
240.100, 0.123
240.200, 0.120
240.300, 0.123
240.400, 0.126
240.500, 0.130
240.600, 0.132
240.700, 0.119
240.800, 0.120
240.900, 0.121
241.000, 0.121
241.100, 0.122
241.200, 0.108
241.300, 0.112
241.400, 0.107
241.500, 0.119
241.600, 0.121
241.700, 0.123
241.800, 0.125
241.900, 0.119
242.000, 0.121
242.100, 0.116
242.200, 0.117
242.300, 0.116
242.400, 0.123
242.500, 0.115
242.600, 0.114
242.700, 0.116
242.800, 0.121
242.900, 0.113
243.000, 0.112
243.100, 0.124
243.200, 0.121
243.300, 0.126
243.400, 0.113
243.500, 0.111
243.600, 0.118
243.700, 0.119
243.800, 0.120
243.900, 0.124
244.000, 0.122
244.100, 0.115
244.200, 0.121
244.300, 0.110
244.400, 0.113
244.500, 0.113
244.600, 0.111
244.700, 0.115
244.800, 0.125
244.900, 0.121
245.000, 0.114
245.100, 0.117
245.200, 0.113
245.300, 0.114
245.400, 0.112
245.500, 0.116
245.600, 0.117
245.700, 0.113
245.800, 0.114
245.900, 0.111
246.000, 0.101
246.100, 0.110
246.200, 0.118
246.300, 0.110
246.400, 0.120
246.500, 0.109
246.600, 0.107
246.700, 0.107
246.800, 0.112
246.900, 0.114
247.000, 0.120
247.100, 0.120
247.200, 0.110
247.300, 0.113
247.400, 0.114
247.500, 0.104
247.600, 0.108
247.700, 0.114
247.800, 0.111
247.900, 0.111
248.000, 0.122
248.100, 0.125
248.200, 0.124
248.300, 0.126
248.400, 0.126
248.500, 0.129
248.600, 0.134
248.700, 0.142
248.800, 0.131
248.900, 0.128
249.000, 0.123
249.100, 0.113
249.200, 0.120
249.300, 0.113
249.400, 0.121
249.500, 0.112
249.600, 0.108
249.700, 0.105
249.800, 0.111
249.900, 0.105
250.000, 0.109
250.100, 0.111
250.200, 0.106
250.300, 0.108
250.400, 0.114
250.500, 0.103
250.600, 0.100
250.700, 0.101
250.800, 0.108
250.900, 0.116
251.000, 0.109
251.100, 0.110
251.200, 0.116
251.300, 0.112
251.400, 0.104
251.500, 0.118
251.600, 0.107
251.700, 0.112
251.800, 0.102
251.900, 0.111
252.000, 0.113
252.100, 0.119
252.200, 0.121
252.300, 0.122
252.400, 0.111
252.500, 0.110
252.600, 0.117
252.700, 0.114
252.800, 0.116
252.900, 0.113
253.000, 0.122
253.100, 0.125
253.200, 0.124
253.300, 0.118
253.400, 0.119
253.500, 0.118
253.600, 0.117
253.700, 0.115
253.800, 0.117
253.900, 0.117
254.000, 0.111
254.100, 0.115
254.200, 0.112
254.300, 0.124
254.400, 0.128
254.500, 0.118
254.600, 0.124
254.700, 0.127
254.800, 0.124
254.900, 0.124
255.000, 0.125
255.100, 0.120
255.200, 0.114
255.300, 0.121
255.400, 0.111
255.500, 0.106
255.600, 0.106
255.700, 0.115
255.800, 0.122
255.900, 0.122
256.000, 0.128
256.100, 0.119
256.200, 0.116
256.300, 0.120
256.400, 0.114
256.500, 0.123
256.600, 0.118
256.700, 0.122
256.800, 0.134
256.900, 0.126
257.000, 0.125
257.100, 0.129
257.200, 0.124
257.300, 0.124
257.400, 0.118
257.500, 0.116
257.600, 0.122
257.700, 0.104
257.800, 0.118
257.900, 0.113
258.000, 0.098
258.100, 0.109
258.200, 0.107
258.300, 0.117
258.400, 0.110
258.500, 0.106
258.600, 0.108
258.700, 0.117
258.800, 0.106
258.900, 0.110
259.000, 0.120
259.100, 0.108
259.200, 0.117
259.300, 0.115
259.400, 0.118
259.500, 0.113
259.600, 0.108
259.700, 0.119
259.800, 0.115
259.900, 0.107
260.000, 0.105
260.100, 0.110
260.200, 0.109
260.300, 0.102
260.400, 0.112
260.500, 0.099
260.600, 0.104
260.700, 0.109
260.800, 0.104
260.900, 0.106
261.000, 0.114
261.100, 0.116
261.200, 0.107
261.300, 0.120
261.400, 0.124
261.500, 0.115
261.600, 0.109
261.700, 0.109
261.800, 0.111
261.900, 0.113
262.000, 0.106
262.100, 0.111
262.200, 0.115
262.300, 0.128
262.400, 0.115
262.500, 0.107
262.600, 0.111
262.700, 0.105
262.800, 0.103
262.900, 0.107
263.000, 0.109
263.100, 0.127
263.200, 0.117
263.300, 0.112
263.400, 0.114
263.500, 0.109
263.600, 0.113
263.700, 0.114
263.800, 0.111
263.900, 0.124
264.000, 0.113
264.100, 0.121
264.200, 0.109
264.300, 0.114
264.400, 0.110
264.500, 0.115
264.600, 0.117
264.700, 0.112
264.800, 0.103
264.900, 0.110
265.000, 0.109
265.100, 0.113
265.200, 0.116
265.300, 0.106
265.400, 0.118
265.500, 0.110
265.600, 0.119
265.700, 0.112
265.800, 0.113
265.900, 0.123
266.000, 0.120
266.100, 0.113
266.200, 0.115
266.300, 0.114
266.400, 0.114
266.500, 0.110
266.600, 0.114
266.700, 0.110
266.800, 0.112
266.900, 0.108
267.000, 0.113
267.100, 0.112
267.200, 0.125
267.300, 0.115
267.400, 0.115
267.500, 0.118
267.600, 0.117
267.700, 0.130
267.800, 0.110
267.900, 0.114
268.000, 0.122
268.100, 0.119
268.200, 0.113
268.300, 0.109
268.400, 0.114
268.500, 0.108
268.600, 0.117
268.700, 0.114
268.800, 0.115
268.900, 0.110
269.000, 0.110
269.100, 0.117
269.200, 0.114
269.300, 0.107
269.400, 0.122
269.500, 0.106
269.600, 0.115
269.700, 0.116
269.800, 0.120
269.900, 0.119
270.000, 0.110
270.100, 0.115
270.200, 0.111
270.300, 0.122
270.400, 0.112
270.500, 0.112
270.600, 0.109
270.700, 0.120
270.800, 0.106
270.900, 0.116
271.000, 0.124
271.100, 0.119
271.200, 0.118
271.300, 0.114
271.400, 0.119
271.500, 0.105
271.600, 0.114
271.700, 0.113
271.800, 0.108
271.900, 0.116
272.000, 0.116
272.100, 0.117
272.200, 0.125
272.300, 0.131
272.400, 0.128
272.500, 0.117
272.600, 0.124
272.700, 0.118
272.800, 0.122
272.900, 0.134
273.000, 0.125
273.100, 0.118
273.200, 0.122
273.300, 0.120
273.400, 0.123
273.500, 0.134
273.600, 0.115
273.700, 0.123
273.800, 0.119
273.900, 0.127
274.000, 0.128
274.100, 0.123
274.200, 0.116
274.300, 0.128
274.400, 0.123
274.500, 0.128
274.600, 0.132
274.700, 0.148
274.800, 0.132
274.900, 0.134
275.000, 0.122
275.100, 0.132
275.200, 0.124
275.300, 0.125
275.400, 0.122
275.500, 0.133
275.600, 0.128
275.700, 0.125
275.800, 0.126
275.900, 0.125
276.000, 0.129
276.100, 0.124
276.200, 0.144
276.300, 0.134
276.400, 0.132
276.500, 0.122
276.600, 0.122
276.700, 0.115
276.800, 0.124
276.900, 0.126
277.000, 0.123
277.100, 0.118
277.200, 0.115
277.300, 0.109
277.400, 0.122
277.500, 0.128
277.600, 0.123
277.700, 0.108
277.800, 0.117
277.900, 0.114
278.000, 0.110
278.100, 0.115
278.200, 0.121
278.300, 0.120
278.400, 0.111
278.500, 0.119
278.600, 0.103
278.700, 0.106
278.800, 0.109
278.900, 0.108
279.000, 0.110
279.100, 0.113
279.200, 0.115
279.300, 0.123
279.400, 0.129
279.500, 0.131
279.600, 0.149
279.700, 0.132
279.800, 0.130
279.900, 0.136
280.000, 0.123
280.100, 0.130
280.200, 0.144
280.300, 0.149
280.400, 0.135
280.500, 0.132
280.600, 0.130
280.700, 0.125
280.800, 0.126
280.900, 0.130
281.000, 0.120
281.100, 0.142
281.200, 0.138
281.300, 0.131
281.400, 0.123
281.500, 0.132
281.600, 0.131
281.700, 0.137
281.800, 0.140
281.900, 0.128
282.000, 0.134
282.100, 0.121
282.200, 0.127
282.300, 0.132
282.400, 0.145
282.500, 0.135
282.600, 0.128
282.700, 0.131
282.800, 0.125
282.900, 0.116
283.000, 0.136
283.100, 0.123
283.200, 0.135
283.300, 0.123
283.400, 0.130
283.500, 0.140
283.600, 0.120
283.700, 0.123
283.800, 0.131
283.900, 0.142
284.000, 0.133
284.100, 0.119
284.200, 0.136
284.300, 0.132
284.400, 0.119
284.500, 0.118
284.600, 0.130
284.700, 0.128
284.800, 0.133
284.900, 0.126
285.000, 0.128
285.100, 0.129
285.200, 0.130
285.300, 0.128
285.400, 0.129
285.500, 0.130
285.600, 0.140
285.700, 0.150
285.800, 0.135
285.900, 0.143
286.000, 0.139
286.100, 0.137
286.200, 0.129
286.300, 0.124
286.400, 0.117
286.500, 0.116
286.600, 0.114
286.700, 0.118
286.800, 0.124
286.900, 0.134
287.000, 0.141
287.100, 0.138
287.200, 0.143
287.300, 0.138
287.400, 0.131
287.500, 0.118
287.600, 0.135
287.700, 0.124
287.800, 0.126
287.900, 0.122
288.000, 0.128
288.100, 0.131
288.200, 0.139
288.300, 0.127
288.400, 0.140
288.500, 0.136
288.600, 0.132
288.700, 0.122
288.800, 0.127
288.900, 0.127
289.000, 0.131
289.100, 0.143
289.200, 0.131
289.300, 0.137
289.400, 0.135
289.500, 0.128
289.600, 0.132
289.700, 0.132
289.800, 0.130
289.900, 0.129
290.000, 0.146
290.100, 0.144
290.200, 0.131
290.300, 0.142
290.400, 0.141
290.500, 0.125
290.600, 0.128
290.700, 0.120
290.800, 0.127
290.900, 0.126
291.000, 0.137
291.100, 0.127
291.200, 0.119
291.300, 0.124
291.400, 0.121
291.500, 0.129
291.600, 0.123
291.700, 0.121
291.800, 0.116
291.900, 0.113
292.000, 0.113
292.100, 0.117
292.200, 0.115
292.300, 0.122
292.400, 0.114
292.500, 0.123
292.600, 0.128
292.700, 0.114
292.800, 0.124
292.900, 0.125
293.000, 0.128
293.100, 0.129
293.200, 0.119
293.300, 0.119
293.400, 0.113
293.500, 0.110
293.600, 0.107
293.700, 0.123
293.800, 0.117
293.900, 0.133
294.000, 0.136
294.100, 0.124
294.200, 0.115
294.300, 0.132
294.400, 0.129
294.500, 0.121
294.600, 0.117
294.700, 0.118
294.800, 0.115
294.900, 0.124
295.000, 0.123
295.100, 0.126
295.200, 0.129
295.300, 0.138
295.400, 0.121
295.500, 0.113
295.600, 0.119
295.700, 0.121
295.800, 0.118
295.900, 0.127
296.000, 0.116
296.100, 0.120
296.200, 0.107
296.300, 0.119
296.400, 0.123
296.500, 0.121
296.600, 0.138
296.700, 0.129
296.800, 0.140
296.900, 0.120
297.000, 0.125
297.100, 0.113
297.200, 0.120
297.300, 0.116
297.400, 0.119
297.500, 0.116
297.600, 0.118
297.700, 0.115
297.800, 0.117
297.900, 0.132
298.000, 0.121
298.100, 0.117
298.200, 0.125
298.300, 0.122
298.400, 0.124
298.500, 0.126
298.600, 0.127
298.700, 0.126
298.800, 0.125
298.900, 0.133
299.000, 0.132
299.100, 0.139
299.200, 0.133
299.300, 0.123
299.400, 0.117
299.500, 0.123
299.600, 0.130
299.700, 0.138
299.800, 0.124
299.900, 0.133
300.000, 0.123
300.100, 0.124
300.200, 0.120
300.300, 0.117
300.400, 0.125
300.500, 0.116
300.600, 0.128
300.700, 0.130
300.800, 0.123
300.900, 0.122
301.000, 0.138
301.100, 0.117
301.200, 0.127
301.300, 0.140
301.400, 0.144
301.500, 0.132
301.600, 0.119
301.700, 0.116
301.800, 0.114
301.900, 0.116
302.000, 0.127
302.100, 0.131
302.200, 0.121
302.300, 0.133
302.400, 0.134
302.500, 0.128
302.600, 0.134
302.700, 0.116
302.800, 0.118
302.900, 0.119
303.000, 0.124
303.100, 0.135
303.200, 0.126
303.300, 0.128
303.400, 0.119
303.500, 0.125
303.600, 0.132
303.700, 0.128
303.800, 0.124
303.900, 0.130
304.000, 0.114
304.100, 0.118
304.200, 0.136
304.300, 0.126
304.400, 0.127
304.500, 0.124
304.600, 0.118
304.700, 0.119
304.800, 0.143
304.900, 0.127
305.000, 0.121
305.100, 0.128
305.200, 0.126
305.300, 0.127
305.400, 0.134
305.500, 0.128
305.600, 0.103
305.700, 0.117
305.800, 0.109
305.900, 0.119
306.000, 0.124
306.100, 0.114
306.200, 0.119
306.300, 0.116
306.400, 0.113
306.500, 0.115
306.600, 0.119
306.700, 0.129
306.800, 0.131
306.900, 0.131
307.000, 0.122
307.100, 0.141
307.200, 0.126
307.300, 0.123
307.400, 0.130
307.500, 0.126
307.600, 0.135
307.700, 0.123
307.800, 0.129
307.900, 0.124
308.000, 0.120
308.100, 0.125
308.200, 0.143
308.300, 0.124
308.400, 0.134
308.500, 0.126
308.600, 0.130
308.700, 0.131
308.800, 0.126
308.900, 0.127
309.000, 0.117
309.100, 0.122
309.200, 0.125
309.300, 0.128
309.400, 0.120
309.500, 0.129
309.600, 0.121
309.700, 0.131
309.800, 0.124
309.900, 0.132
310.000, 0.128
310.100, 0.134
310.200, 0.141
310.300, 0.126
310.400, 0.131
310.500, 0.121
310.600, 0.129
310.700, 0.122
310.800, 0.129
310.900, 0.135
311.000, 0.137
311.100, 0.142
311.200, 0.150
311.300, 0.152
311.400, 0.137
311.500, 0.124
311.600, 0.133
311.700, 0.140
311.800, 0.127
311.900, 0.121
312.000, 0.121
312.100, 0.111
312.200, 0.116
312.300, 0.119
312.400, 0.114
312.500, 0.128
312.600, 0.131
312.700, 0.125
312.800, 0.140
312.900, 0.148
313.000, 0.156
313.100, 0.138
313.200, 0.149
313.300, 0.136
313.400, 0.128
313.500, 0.128
313.600, 0.123
313.700, 0.136
313.800, 0.121
313.900, 0.122
314.000, 0.127
314.100, 0.130
314.200, 0.134
314.300, 0.134
314.400, 0.128
314.500, 0.133
314.600, 0.128
314.700, 0.124
314.800, 0.133
314.900, 0.131
315.000, 0.130
315.100, 0.131
315.200, 0.140
315.300, 0.137
315.400, 0.132
315.500, 0.125
315.600, 0.132
315.700, 0.125
315.800, 0.128
315.900, 0.127
316.000, 0.125
316.100, 0.115
316.200, 0.128
316.300, 0.122
316.400, 0.123
316.500, 0.124
316.600, 0.124
316.700, 0.139
316.800, 0.131
316.900, 0.134
317.000, 0.124
317.100, 0.111
317.200, 0.118
317.300, 0.119
317.400, 0.119
317.500, 0.126
317.600, 0.122
317.700, 0.115
317.800, 0.115
317.900, 0.124
318.000, 0.123
318.100, 0.124
318.200, 0.114
318.300, 0.108
318.400, 0.106
318.500, 0.113
318.600, 0.112
318.700, 0.116
318.800, 0.111
318.900, 0.107
319.000, 0.110
319.100, 0.103
319.200, 0.110
319.300, 0.111
319.400, 0.122
319.500, 0.111
319.600, 0.120
319.700, 0.115
319.800, 0.111
319.900, 0.109
320.000, 0.114
320.100, 0.119
320.200, 0.112
320.300, 0.104
320.400, 0.111
320.500, 0.126
320.600, 0.118
320.700, 0.113
320.800, 0.120
320.900, 0.115
321.000, 0.109
321.100, 0.114
321.200, 0.114
321.300, 0.120
321.400, 0.124
321.500, 0.128
321.600, 0.127
321.700, 0.128
321.800, 0.125
321.900, 0.131
322.000, 0.127
322.100, 0.113
322.200, 0.119
322.300, 0.117
322.400, 0.117
322.500, 0.115
322.600, 0.116
322.700, 0.109
322.800, 0.109
322.900, 0.110
323.000, 0.104
323.100, 0.106
323.200, 0.108
323.300, 0.109
323.400, 0.106
323.500, 0.120
323.600, 0.108
323.700, 0.104
323.800, 0.099
323.900, 0.106
324.000, 0.105
324.100, 0.107
324.200, 0.119
324.300, 0.110
324.400, 0.113
324.500, 0.104
324.600, 0.106
324.700, 0.107
324.800, 0.116
324.900, 0.110
325.000, 0.114
325.100, 0.120
325.200, 0.115
325.300, 0.121
325.400, 0.112
325.500, 0.119
325.600, 0.115
325.700, 0.114
325.800, 0.121
325.900, 0.113
326.000, 0.115
326.100, 0.108
326.200, 0.113
326.300, 0.121
326.400, 0.119
326.500, 0.114
326.600, 0.116
326.700, 0.126
326.800, 0.119
326.900, 0.117
327.000, 0.115
327.100, 0.112
327.200, 0.116
327.300, 0.110
327.400, 0.112
327.500, 0.113
327.600, 0.116
327.700, 0.113
327.800, 0.115
327.900, 0.109
328.000, 0.120
328.100, 0.122
328.200, 0.132
328.300, 0.113
328.400, 0.111
328.500, 0.117
328.600, 0.112
328.700, 0.118
328.800, 0.120
328.900, 0.108
329.000, 0.111
329.100, 0.110
329.200, 0.109
329.300, 0.112
329.400, 0.112
329.500, 0.116
329.600, 0.114
329.700, 0.119
329.800, 0.113
329.900, 0.111
330.000, 0.110
330.100, 0.112
330.200, 0.110
330.300, 0.109
330.400, 0.115
330.500, 0.114
330.600, 0.124
330.700, 0.117
330.800, 0.112
330.900, 0.112
331.000, 0.110
331.100, 0.109
331.200, 0.105
331.300, 0.107
331.400, 0.108
331.500, 0.107
331.600, 0.108
331.700, 0.116
331.800, 0.115
331.900, 0.116
332.000, 0.116
332.100, 0.111
332.200, 0.125
332.300, 0.110
332.400, 0.118
332.500, 0.132
332.600, 0.118
332.700, 0.115
332.800, 0.113
332.900, 0.109
333.000, 0.111
333.100, 0.114
333.200, 0.106
333.300, 0.110
333.400, 0.107
333.500, 0.106
333.600, 0.110
333.700, 0.109
333.800, 0.103
333.900, 0.106
334.000, 0.109
334.100, 0.104
334.200, 0.104
334.300, 0.118
334.400, 0.123
334.500, 0.114
334.600, 0.112
334.700, 0.102
334.800, 0.110
334.900, 0.110
335.000, 0.118
335.100, 0.112
335.200, 0.118
335.300, 0.119
335.400, 0.113
335.500, 0.115
335.600, 0.122
335.700, 0.115
335.800, 0.115
335.900, 0.117
336.000, 0.114
336.100, 0.123
336.200, 0.121
336.300, 0.113
336.400, 0.124
336.500, 0.120
336.600, 0.109
336.700, 0.116
336.800, 0.117
336.900, 0.118
337.000, 0.126
337.100, 0.116
337.200, 0.120
337.300, 0.121
337.400, 0.117
337.500, 0.119
337.600, 0.115
337.700, 0.118
337.800, 0.124
337.900, 0.120
338.000, 0.110
338.100, 0.116
338.200, 0.108
338.300, 0.109
338.400, 0.112
338.500, 0.125
338.600, 0.119
338.700, 0.117
338.800, 0.118
338.900, 0.116
339.000, 0.110
339.100, 0.122
339.200, 0.129
339.300, 0.113
339.400, 0.118
339.500, 0.116
339.600, 0.131
339.700, 0.122
339.800, 0.122
339.900, 0.113
340.000, 0.116
340.100, 0.111
340.200, 0.123
340.300, 0.120
340.400, 0.123
340.500, 0.128
340.600, 0.117
340.700, 0.126
340.800, 0.127
340.900, 0.125
341.000, 0.123
341.100, 0.118
341.200, 0.109
341.300, 0.120
341.400, 0.114
341.500, 0.116
341.600, 0.131
341.700, 0.122
341.800, 0.124
341.900, 0.118
342.000, 0.121
342.100, 0.120
342.200, 0.122
342.300, 0.117
342.400, 0.122
342.500, 0.128
342.600, 0.115
342.700, 0.110
342.800, 0.115
342.900, 0.117
343.000, 0.102
343.100, 0.109
343.200, 0.113
343.300, 0.118
343.400, 0.116
343.500, 0.113
343.600, 0.117
343.700, 0.112
343.800, 0.120
343.900, 0.118
344.000, 0.120
344.100, 0.111
344.200, 0.106
344.300, 0.122
344.400, 0.120
344.500, 0.110
344.600, 0.119
344.700, 0.114
344.800, 0.110
344.900, 0.111
345.000, 0.117
345.100, 0.120
345.200, 0.116
345.300, 0.125
345.400, 0.125
345.500, 0.124
345.600, 0.130
345.700, 0.119
345.800, 0.119
345.900, 0.115
346.000, 0.128
346.100, 0.121
346.200, 0.122
346.300, 0.114
346.400, 0.117
346.500, 0.120
346.600, 0.120
346.700, 0.120
346.800, 0.133
346.900, 0.126
347.000, 0.126
347.100, 0.127
347.200, 0.124
347.300, 0.121
347.400, 0.123
347.500, 0.122
347.600, 0.115
347.700, 0.123
347.800, 0.113
347.900, 0.120
348.000, 0.115
348.100, 0.117
348.200, 0.123
348.300, 0.122
348.400, 0.124
348.500, 0.121
348.600, 0.123
348.700, 0.125
348.800, 0.122
348.900, 0.121
349.000, 0.111
349.100, 0.127
349.200, 0.114
349.300, 0.120
349.400, 0.113
349.500, 0.105
349.600, 0.108
349.700, 0.114
349.800, 0.112
349.900, 0.118
350.000, 0.104
350.100, 0.108
350.200, 0.118
350.300, 0.132
350.400, 0.122
350.500, 0.123
350.600, 0.118
350.700, 0.123
350.800, 0.115
350.900, 0.130
351.000, 0.130
351.100, 0.119
351.200, 0.119
351.300, 0.113
351.400, 0.107
351.500, 0.119
351.600, 0.117
351.700, 0.113
351.800, 0.121
351.900, 0.121
352.000, 0.123
352.100, 0.119
352.200, 0.119
352.300, 0.120
352.400, 0.122
352.500, 0.125
352.600, 0.113
352.700, 0.115
352.800, 0.120
352.900, 0.109
353.000, 0.132
353.100, 0.123
353.200, 0.113
353.300, 0.118
353.400, 0.111
353.500, 0.104
353.600, 0.114
353.700, 0.113
353.800, 0.103
353.900, 0.114
354.000, 0.115
354.100, 0.114
354.200, 0.123
354.300, 0.120
354.400, 0.106
354.500, 0.114
354.600, 0.116
354.700, 0.106
354.800, 0.116
354.900, 0.118
355.000, 0.109
355.100, 0.107
355.200, 0.110
355.300, 0.119
355.400, 0.111
355.500, 0.111
355.600, 0.111
355.700, 0.115
355.800, 0.121
355.900, 0.117
356.000, 0.126
356.100, 0.120
356.200, 0.114
356.300, 0.126
356.400, 0.124
356.500, 0.124
356.600, 0.125
356.700, 0.126
356.800, 0.126
356.900, 0.129
357.000, 0.115
357.100, 0.126
357.200, 0.129
357.300, 0.123
357.400, 0.121
357.500, 0.117
357.600, 0.111
357.700, 0.127
357.800, 0.122
357.900, 0.115
358.000, 0.114
358.100, 0.131
358.200, 0.115
358.300, 0.120
358.400, 0.116
358.500, 0.117
358.600, 0.133
358.700, 0.136
358.800, 0.127
358.900, 0.114
359.000, 0.115
359.100, 0.115
359.200, 0.113
359.300, 0.117
359.400, 0.109
359.500, 0.109
359.600, 0.107
359.700, 0.115
359.800, 0.108
359.900, 0.113
360.000, 0.106
360.100, 0.110
360.200, 0.107
360.300, 0.109
360.400, 0.113
360.500, 0.109
360.600, 0.121
360.700, 0.115
360.800, 0.120
360.900, 0.130
361.000, 0.119
361.100, 0.125
361.200, 0.121
361.300, 0.113
361.400, 0.115
361.500, 0.116
361.600, 0.113
361.700, 0.113
361.800, 0.114
361.900, 0.116
362.000, 0.130
362.100, 0.122
362.200, 0.121
362.300, 0.116
362.400, 0.117
362.500, 0.109
362.600, 0.109
362.700, 0.109
362.800, 0.125
362.900, 0.120
363.000, 0.113
363.100, 0.119
363.200, 0.114
363.300, 0.119
363.400, 0.128
363.500, 0.117
363.600, 0.118
363.700, 0.118
363.800, 0.114
363.900, 0.111
364.000, 0.108
364.100, 0.117
364.200, 0.107
364.300, 0.112
364.400, 0.115
364.500, 0.126
364.600, 0.128
364.700, 0.125
364.800, 0.125
364.900, 0.125
365.000, 0.114
365.100, 0.117
365.200, 0.120
365.300, 0.122
365.400, 0.112
365.500, 0.114
365.600, 0.114
365.700, 0.123
365.800, 0.117
365.900, 0.118
366.000, 0.120
366.100, 0.116
366.200, 0.118
366.300, 0.113
366.400, 0.115
366.500, 0.115
366.600, 0.123
366.700, 0.120
366.800, 0.111
366.900, 0.109
367.000, 0.112
367.100, 0.112
367.200, 0.108
367.300, 0.108
367.400, 0.106
367.500, 0.102
367.600, 0.104
367.700, 0.109
367.800, 0.109
367.900, 0.112
368.000, 0.108
368.100, 0.110
368.200, 0.110
368.300, 0.106
368.400, 0.109
368.500, 0.104
368.600, 0.115
368.700, 0.102
368.800, 0.121
368.900, 0.118
369.000, 0.108
369.100, 0.112
369.200, 0.112
369.300, 0.106
369.400, 0.112
369.500, 0.115
369.600, 0.112
369.700, 0.110
369.800, 0.107
369.900, 0.112
370.000, 0.111
370.100, 0.111
370.200, 0.108
370.300, 0.109
370.400, 0.119
370.500, 0.104
370.600, 0.110
370.700, 0.112
370.800, 0.104
370.900, 0.106
371.000, 0.112
371.100, 0.109
371.200, 0.116
371.300, 0.106
371.400, 0.104
371.500, 0.108
371.600, 0.112
371.700, 0.109
371.800, 0.108
371.900, 0.118
372.000, 0.109
372.100, 0.112
372.200, 0.108
372.300, 0.108
372.400, 0.112
372.500, 0.116
372.600, 0.117
372.700, 0.114
372.800, 0.105
372.900, 0.114
373.000, 0.121
373.100, 0.122
373.200, 0.115
373.300, 0.109
373.400, 0.113
373.500, 0.112
373.600, 0.105
373.700, 0.112
373.800, 0.107
373.900, 0.115
374.000, 0.113
374.100, 0.115
374.200, 0.114
374.300, 0.112
374.400, 0.122
374.500, 0.114
374.600, 0.112
374.700, 0.119
374.800, 0.119
374.900, 0.118
375.000, 0.117
375.100, 0.110
375.200, 0.120
375.300, 0.115
375.400, 0.120
375.500, 0.114
375.600, 0.115
375.700, 0.112
375.800, 0.107
375.900, 0.111
376.000, 0.107
376.100, 0.107
376.200, 0.108
376.300, 0.117
376.400, 0.113
376.500, 0.105
376.600, 0.110
376.700, 0.108
376.800, 0.109
376.900, 0.109
377.000, 0.109
377.100, 0.108
377.200, 0.110
377.300, 0.106
377.400, 0.105
377.500, 0.111
377.600, 0.114
377.700, 0.115
377.800, 0.116
377.900, 0.115
378.000, 0.112
378.100, 0.113
378.200, 0.111
378.300, 0.111
378.400, 0.110
378.500, 0.115
378.600, 0.109
378.700, 0.110
378.800, 0.109
378.900, 0.109
379.000, 0.115
379.100, 0.114
379.200, 0.110
379.300, 0.127
379.400, 0.113
379.500, 0.106
379.600, 0.112
379.700, 0.113
379.800, 0.113
379.900, 0.110
380.000, 0.112
380.100, 0.122
380.200, 0.109
380.300, 0.113
380.400, 0.113
380.500, 0.110
380.600, 0.106
380.700, 0.109
380.800, 0.106
380.900, 0.104
381.000, 0.099
381.100, 0.107
381.200, 0.116
381.300, 0.108
381.400, 0.111
381.500, 0.105
381.600, 0.110
381.700, 0.109
381.800, 0.101
381.900, 0.109
382.000, 0.114
382.100, 0.106
382.200, 0.109
382.300, 0.113
382.400, 0.116
382.500, 0.102
382.600, 0.111
382.700, 0.114
382.800, 0.114
382.900, 0.111
383.000, 0.106
383.100, 0.107
383.200, 0.098
383.300, 0.109
383.400, 0.105
383.500, 0.113
383.600, 0.109
383.700, 0.105
383.800, 0.112
383.900, 0.108
384.000, 0.107
384.100, 0.101
384.200, 0.109
384.300, 0.109
384.400, 0.105
384.500, 0.110
384.600, 0.102
384.700, 0.105
384.800, 0.106
384.900, 0.103
385.000, 0.106
385.100, 0.101
385.200, 0.104
385.300, 0.110
385.400, 0.097
385.500, 0.102
385.600, 0.107
385.700, 0.103
385.800, 0.112
385.900, 0.106
386.000, 0.112
386.100, 0.100
386.200, 0.105
386.300, 0.109
386.400, 0.113
386.500, 0.107
386.600, 0.114
386.700, 0.114
386.800, 0.111
386.900, 0.120
387.000, 0.107
387.100, 0.119
387.200, 0.111
387.300, 0.117
387.400, 0.112
387.500, 0.106
387.600, 0.112
387.700, 0.108
387.800, 0.108
387.900, 0.110
388.000, 0.115
388.100, 0.115
388.200, 0.103
388.300, 0.106
388.400, 0.108
388.500, 0.104
388.600, 0.107
388.700, 0.101
388.800, 0.098
388.900, 0.112
389.000, 0.106
389.100, 0.125
389.200, 0.112
389.300, 0.114
389.400, 0.114
389.500, 0.117
389.600, 0.117
389.700, 0.115
389.800, 0.115
389.900, 0.108
390.000, 0.108
390.100, 0.116
390.200, 0.103
390.300, 0.110
390.400, 0.112
390.500, 0.113
390.600, 0.112
390.700, 0.108
390.800, 0.112
390.900, 0.102
391.000, 0.110
391.100, 0.104
391.200, 0.111
391.300, 0.118
391.400, 0.105
391.500, 0.109
391.600, 0.105
391.700, 0.104
391.800, 0.110
391.900, 0.115
392.000, 0.108
392.100, 0.116
392.200, 0.116
392.300, 0.115
392.400, 0.119
392.500, 0.115
392.600, 0.115
392.700, 0.118
392.800, 0.110
392.900, 0.108
393.000, 0.117
393.100, 0.113
393.200, 0.132
393.300, 0.122
393.400, 0.115
393.500, 0.110
393.600, 0.126
393.700, 0.121
393.800, 0.117
393.900, 0.112
394.000, 0.108
394.100, 0.113
394.200, 0.108
394.300, 0.106
394.400, 0.123
394.500, 0.113
394.600, 0.111
394.700, 0.111
394.800, 0.119
394.900, 0.133
395.000, 0.132
395.100, 0.118
395.200, 0.119
395.300, 0.121
395.400, 0.120
395.500, 0.123
395.600, 0.113
395.700, 0.112
395.800, 0.111
395.900, 0.107
396.000, 0.119
396.100, 0.102
396.200, 0.115
396.300, 0.111
396.400, 0.113
396.500, 0.102
396.600, 0.113
396.700, 0.106
396.800, 0.110
396.900, 0.103
397.000, 0.107
397.100, 0.108
397.200, 0.107
397.300, 0.111
397.400, 0.109
397.500, 0.113
397.600, 0.110
397.700, 0.103
397.800, 0.115
397.900, 0.107
398.000, 0.102
398.100, 0.115
398.200, 0.120
398.300, 0.111
398.400, 0.127
398.500, 0.114
398.600, 0.114
398.700, 0.119
398.800, 0.103
398.900, 0.111
399.000, 0.118
399.100, 0.106
399.200, 0.111
399.300, 0.109
399.400, 0.111
399.500, 0.106
399.600, 0.119
399.700, 0.105
399.800, 0.102
399.900, 0.106
400.000, 0.108
400.100, 0.121
400.200, 0.128
400.300, 0.110
400.400, 0.110
400.500, 0.118
400.600, 0.121
400.700, 0.111
400.800, 0.119
400.900, 0.108
401.000, 0.109
401.100, 0.105
401.200, 0.112
401.300, 0.104
401.400, 0.102
401.500, 0.110
401.600, 0.111
401.700, 0.110
401.800, 0.112
401.900, 0.105
402.000, 0.112
402.100, 0.111
402.200, 0.117
402.300, 0.109
402.400, 0.111
402.500, 0.109
402.600, 0.127
402.700, 0.121
402.800, 0.128
402.900, 0.104
403.000, 0.119
403.100, 0.117
403.200, 0.116
403.300, 0.109
403.400, 0.100
403.500, 0.118
403.600, 0.113
403.700, 0.115
403.800, 0.105
403.900, 0.107
404.000, 0.107
404.100, 0.110
404.200, 0.101
404.300, 0.105
404.400, 0.106
404.500, 0.108
404.600, 0.111
404.700, 0.103
404.800, 0.102
404.900, 0.113
405.000, 0.110
405.100, 0.109
405.200, 0.114
405.300, 0.119
405.400, 0.109
405.500, 0.109
405.600, 0.107
405.700, 0.101
405.800, 0.093
405.900, 0.101
406.000, 0.102
406.100, 0.100
406.200, 0.103
406.300, 0.104
406.400, 0.100
406.500, 0.107
406.600, 0.105
406.700, 0.098
406.800, 0.105
406.900, 0.099
407.000, 0.104
407.100, 0.103
407.200, 0.106
407.300, 0.112
407.400, 0.113
407.500, 0.103
407.600, 0.107
407.700, 0.101
407.800, 0.110
407.900, 0.115
408.000, 0.109
408.100, 0.105
408.200, 0.108
408.300, 0.107
408.400, 0.101
408.500, 0.113
408.600, 0.114
408.700, 0.108
408.800, 0.098
408.900, 0.104
409.000, 0.108
409.100, 0.106
409.200, 0.107
409.300, 0.109
409.400, 0.104
409.500, 0.102
409.600, 0.097
409.700, 0.104
409.800, 0.102
409.900, 0.110
410.000, 0.115
410.100, 0.112
410.200, 0.110
410.300, 0.109
410.400, 0.115
410.500, 0.108
410.600, 0.117
410.700, 0.123
410.800, 0.119
410.900, 0.118
411.000, 0.124
411.100, 0.110
411.200, 0.122
411.300, 0.126
411.400, 0.117
411.500, 0.104
411.600, 0.112
411.700, 0.119
411.800, 0.117
411.900, 0.116
412.000, 0.120
412.100, 0.125
412.200, 0.113
412.300, 0.118
412.400, 0.114
412.500, 0.117
412.600, 0.109
412.700, 0.106
412.800, 0.118
412.900, 0.116
413.000, 0.115
413.100, 0.122
413.200, 0.121
413.300, 0.120
413.400, 0.127
413.500, 0.123
413.600, 0.122
413.700, 0.109
413.800, 0.117
413.900, 0.114
414.000, 0.112
414.100, 0.119
414.200, 0.107
414.300, 0.104
414.400, 0.104
414.500, 0.114
414.600, 0.125
414.700, 0.096
414.800, 0.101
414.900, 0.099
415.000, 0.110
415.100, 0.116
415.200, 0.105
415.300, 0.116
415.400, 0.104
415.500, 0.113
415.600, 0.116
415.700, 0.111
415.800, 0.111
415.900, 0.104
416.000, 0.118
416.100, 0.112
416.200, 0.121
416.300, 0.126
416.400, 0.120
416.500, 0.118
416.600, 0.106
416.700, 0.103
416.800, 0.094
416.900, 0.108
417.000, 0.106
417.100, 0.119
417.200, 0.118
417.300, 0.120
417.400, 0.114
417.500, 0.106
417.600, 0.120
417.700, 0.117
417.800, 0.116
417.900, 0.121
418.000, 0.107
418.100, 0.112
418.200, 0.107
418.300, 0.118
418.400, 0.121
418.500, 0.118
418.600, 0.107
418.700, 0.119
418.800, 0.121
418.900, 0.114
419.000, 0.113
419.100, 0.108
419.200, 0.104
419.300, 0.098
419.400, 0.098
419.500, 0.123
419.600, 0.124
419.700, 0.124
419.800, 0.120
419.900, 0.118
420.000, 0.110
420.100, 0.113
420.200, 0.101
420.300, 0.113
420.400, 0.129
420.500, 0.116
420.600, 0.109
420.700, 0.121
420.800, 0.113
420.900, 0.118
421.000, 0.105
421.100, 0.113
421.200, 0.107
421.300, 0.114
421.400, 0.112
421.500, 0.113
421.600, 0.118
421.700, 0.115
421.800, 0.120
421.900, 0.112
422.000, 0.114
422.100, 0.130
422.200, 0.117
422.300, 0.132
422.400, 0.114
422.500, 0.128
422.600, 0.121
422.700, 0.115
422.800, 0.117
422.900, 0.123
423.000, 0.111
423.100, 0.120
423.200, 0.115
423.300, 0.100
423.400, 0.103
423.500, 0.105
423.600, 0.110
423.700, 0.113
423.800, 0.109
423.900, 0.106
424.000, 0.107
424.100, 0.115
424.200, 0.116
424.300, 0.115
424.400, 0.119
424.500, 0.111
424.600, 0.107
424.700, 0.118
424.800, 0.112
424.900, 0.113
425.000, 0.115
425.100, 0.113
425.200, 0.114
425.300, 0.115
425.400, 0.127
425.500, 0.117
425.600, 0.109
425.700, 0.121
425.800, 0.108
425.900, 0.113
426.000, 0.116
426.100, 0.114
426.200, 0.128
426.300, 0.125
426.400, 0.127
426.500, 0.131
426.600, 0.116
426.700, 0.134
426.800, 0.124
426.900, 0.124
427.000, 0.130
427.100, 0.122
427.200, 0.115
427.300, 0.106
427.400, 0.122
427.500, 0.116
427.600, 0.119
427.700, 0.112
427.800, 0.111
427.900, 0.110
428.000, 0.118
428.100, 0.124
428.200, 0.117
428.300, 0.107
428.400, 0.119
428.500, 0.110
428.600, 0.123
428.700, 0.112
428.800, 0.119
428.900, 0.107
429.000, 0.110
429.100, 0.115
429.200, 0.106
429.300, 0.098
429.400, 0.109
429.500, 0.109
429.600, 0.100
429.700, 0.115
429.800, 0.110
429.900, 0.110
430.000, 0.113
430.100, 0.125
430.200, 0.108
430.300, 0.116
430.400, 0.108
430.500, 0.102
430.600, 0.123
430.700, 0.119
430.800, 0.115
430.900, 0.118
431.000, 0.117
431.100, 0.106
431.200, 0.113
431.300, 0.106
431.400, 0.118
431.500, 0.117
431.600, 0.104
431.700, 0.121
431.800, 0.110
431.900, 0.110
432.000, 0.108
432.100, 0.119
432.200, 0.110
432.300, 0.123
432.400, 0.108
432.500, 0.118
432.600, 0.122
432.700, 0.103
432.800, 0.121
432.900, 0.101
433.000, 0.106
433.100, 0.098
433.200, 0.102
433.300, 0.099
433.400, 0.103
433.500, 0.108
433.600, 0.105
433.700, 0.110
433.800, 0.107
433.900, 0.107
434.000, 0.110
434.100, 0.101
434.200, 0.110
434.300, 0.112
434.400, 0.098
434.500, 0.112
434.600, 0.099
434.700, 0.111
434.800, 0.104
434.900, 0.108
435.000, 0.103
435.100, 0.105
435.200, 0.104
435.300, 0.099
435.400, 0.115
435.500, 0.113
435.600, 0.130
435.700, 0.128
435.800, 0.135
435.900, 0.137
436.000, 0.129
436.100, 0.122
436.200, 0.124
436.300, 0.131
436.400, 0.122
436.500, 0.116
436.600, 0.111
436.700, 0.123
436.800, 0.125
436.900, 0.119
437.000, 0.105
437.100, 0.109
437.200, 0.114
437.300, 0.110
437.400, 0.110
437.500, 0.108
437.600, 0.110
437.700, 0.109
437.800, 0.102
437.900, 0.119
438.000, 0.105
438.100, 0.116
438.200, 0.122
438.300, 0.123
438.400, 0.112
438.500, 0.121
438.600, 0.129
438.700, 0.114
438.800, 0.122
438.900, 0.120
439.000, 0.119
439.100, 0.120
439.200, 0.115
439.300, 0.122
439.400, 0.129
439.500, 0.121
439.600, 0.124
439.700, 0.122
439.800, 0.114
439.900, 0.114
440.000, 0.110
440.100, 0.115
440.200, 0.110
440.300, 0.106
440.400, 0.100
440.500, 0.104
440.600, 0.101
440.700, 0.104
440.800, 0.110
440.900, 0.100
441.000, 0.104
441.100, 0.109
441.200, 0.116
441.300, 0.109
441.400, 0.096
441.500, 0.100
441.600, 0.092
441.700, 0.098
441.800, 0.099
441.900, 0.087
442.000, 0.100
442.100, 0.105
442.200, 0.113
442.300, 0.104
442.400, 0.117
442.500, 0.111
442.600, 0.102
442.700, 0.123
442.800, 0.122
442.900, 0.107
443.000, 0.105
443.100, 0.116
443.200, 0.119
443.300, 0.109
443.400, 0.102
443.500, 0.108
443.600, 0.116
443.700, 0.127
443.800, 0.122
443.900, 0.106
444.000, 0.105
444.100, 0.104
444.200, 0.111
444.300, 0.113
444.400, 0.105
444.500, 0.100
444.600, 0.106
444.700, 0.108
444.800, 0.113
444.900, 0.111
445.000, 0.109
445.100, 0.110
445.200, 0.116
445.300, 0.102
445.400, 0.119
445.500, 0.116
445.600, 0.117
445.700, 0.114
445.800, 0.123
445.900, 0.114
446.000, 0.112
446.100, 0.113
446.200, 0.120
446.300, 0.127
446.400, 0.121
446.500, 0.109
446.600, 0.111
446.700, 0.116
446.800, 0.120
446.900, 0.119
447.000, 0.109
447.100, 0.117
447.200, 0.117
447.300, 0.108
447.400, 0.120
447.500, 0.119
447.600, 0.112
447.700, 0.116
447.800, 0.110
447.900, 0.123
448.000, 0.111
448.100, 0.114
448.200, 0.112
448.300, 0.116
448.400, 0.123
448.500, 0.116
448.600, 0.119
448.700, 0.112
448.800, 0.111
448.900, 0.123
449.000, 0.109
449.100, 0.113
449.200, 0.109
449.300, 0.113
449.400, 0.118
449.500, 0.113
449.600, 0.131
449.700, 0.114
449.800, 0.113
449.900, 0.114
450.000, 0.102
450.100, 0.110
450.200, 0.115
450.300, 0.106
450.400, 0.120
450.500, 0.128
450.600, 0.117
450.700, 0.113
450.800, 0.115
450.900, 0.106
451.000, 0.108
451.100, 0.107
451.200, 0.122
451.300, 0.112
451.400, 0.108
451.500, 0.109
451.600, 0.116
451.700, 0.112
451.800, 0.100
451.900, 0.106
452.000, 0.104
452.100, 0.120
452.200, 0.118
452.300, 0.111
452.400, 0.126
452.500, 0.116
452.600, 0.114
452.700, 0.110
452.800, 0.105
452.900, 0.126
453.000, 0.125
453.100, 0.120
453.200, 0.123
453.300, 0.122
453.400, 0.116
453.500, 0.111
453.600, 0.116
453.700, 0.124
453.800, 0.116
453.900, 0.124
454.000, 0.111
454.100, 0.107
454.200, 0.118
454.300, 0.117
454.400, 0.113
454.500, 0.128
454.600, 0.132
454.700, 0.124
454.800, 0.112
454.900, 0.118
455.000, 0.123
455.100, 0.118
455.200, 0.128
455.300, 0.121
455.400, 0.125
455.500, 0.115
455.600, 0.126
455.700, 0.116
455.800, 0.115
455.900, 0.121
456.000, 0.125
456.100, 0.129
456.200, 0.137
456.300, 0.129
456.400, 0.121
456.500, 0.131
456.600, 0.135
456.700, 0.130
456.800, 0.123
456.900, 0.134
457.000, 0.125
457.100, 0.119
457.200, 0.131
457.300, 0.124
457.400, 0.129
457.500, 0.125
457.600, 0.116
457.700, 0.117
457.800, 0.121
457.900, 0.121
458.000, 0.131
458.100, 0.116
458.200, 0.133
458.300, 0.118
458.400, 0.118
458.500, 0.115
458.600, 0.111
458.700, 0.119
458.800, 0.122
458.900, 0.121
459.000, 0.125
459.100, 0.128
459.200, 0.125
459.300, 0.123
459.400, 0.105
459.500, 0.107
459.600, 0.119
459.700, 0.106
459.800, 0.114
459.900, 0.124
460.000, 0.103
460.100, 0.122
460.200, 0.124
460.300, 0.113
460.400, 0.121
460.500, 0.124
460.600, 0.131
460.700, 0.126
460.800, 0.116
460.900, 0.112
461.000, 0.124
461.100, 0.117
461.200, 0.112
461.300, 0.115
461.400, 0.119
461.500, 0.129
461.600, 0.115
461.700, 0.126
461.800, 0.129
461.900, 0.132
462.000, 0.131
462.100, 0.116
462.200, 0.127
462.300, 0.128
462.400, 0.121
462.500, 0.109
462.600, 0.117
462.700, 0.126
462.800, 0.127
462.900, 0.128
463.000, 0.126
463.100, 0.121
463.200, 0.113
463.300, 0.120
463.400, 0.125
463.500, 0.110
463.600, 0.121
463.700, 0.125
463.800, 0.119
463.900, 0.112
464.000, 0.108
464.100, 0.104
464.200, 0.109
464.300, 0.104
464.400, 0.111
464.500, 0.124
464.600, 0.117
464.700, 0.132
464.800, 0.130
464.900, 0.115
465.000, 0.110
465.100, 0.117
465.200, 0.110
465.300, 0.109
465.400, 0.111
465.500, 0.114
465.600, 0.109
465.700, 0.117
465.800, 0.116
465.900, 0.113
466.000, 0.107
466.100, 0.125
466.200, 0.113
466.300, 0.131
466.400, 0.123
466.500, 0.132
466.600, 0.117
466.700, 0.132
466.800, 0.129
466.900, 0.130
467.000, 0.106
467.100, 0.099
467.200, 0.103
467.300, 0.099
467.400, 0.123
467.500, 0.110
467.600, 0.104
467.700, 0.113
467.800, 0.111
467.900, 0.109
468.000, 0.111
468.100, 0.101
468.200, 0.098
468.300, 0.107
468.400, 0.105
468.500, 0.112
468.600, 0.112
468.700, 0.118
468.800, 0.109
468.900, 0.128
469.000, 0.111
469.100, 0.099
469.200, 0.106
469.300, 0.114
469.400, 0.104
469.500, 0.112
469.600, 0.112
469.700, 0.122
469.800, 0.108
469.900, 0.115
470.000, 0.117
470.100, 0.111
470.200, 0.116
470.300, 0.118
470.400, 0.118
470.500, 0.103
470.600, 0.100
470.700, 0.122
470.800, 0.113
470.900, 0.105
471.000, 0.102
471.100, 0.118
471.200, 0.103
471.300, 0.113
471.400, 0.112
471.500, 0.105
471.600, 0.113
471.700, 0.105
471.800, 0.118
471.900, 0.102
472.000, 0.109
472.100, 0.105
472.200, 0.117
472.300, 0.110
472.400, 0.114
472.500, 0.119
472.600, 0.120
472.700, 0.122
472.800, 0.106
472.900, 0.109
473.000, 0.103
473.100, 0.106
473.200, 0.115
473.300, 0.107
473.400, 0.110
473.500, 0.104
473.600, 0.107
473.700, 0.105
473.800, 0.108
473.900, 0.113
474.000, 0.120
474.100, 0.109
474.200, 0.120
474.300, 0.105
474.400, 0.120
474.500, 0.106
474.600, 0.103
474.700, 0.101
474.800, 0.098
474.900, 0.099
475.000, 0.099
475.100, 0.104
475.200, 0.100
475.300, 0.107
475.400, 0.103
475.500, 0.097
475.600, 0.107
475.700, 0.109
475.800, 0.108
475.900, 0.113
476.000, 0.114
476.100, 0.116
476.200, 0.107
476.300, 0.094
476.400, 0.108
476.500, 0.098
476.600, 0.094
476.700, 0.101
476.800, 0.097
476.900, 0.102
477.000, 0.097
477.100, 0.099
477.200, 0.089
477.300, 0.108
477.400, 0.103
477.500, 0.109
477.600, 0.101
477.700, 0.126
477.800, 0.113
477.900, 0.106
478.000, 0.107
478.100, 0.113
478.200, 0.121
478.300, 0.115
478.400, 0.126
478.500, 0.128
478.600, 0.124
478.700, 0.134
478.800, 0.116
478.900, 0.111
479.000, 0.113
479.100, 0.110
479.200, 0.103
479.300, 0.111
479.400, 0.107
479.500, 0.104
479.600, 0.094
479.700, 0.106
479.800, 0.102
479.900, 0.110
480.000, 0.105
480.100, 0.105
480.200, 0.109
480.300, 0.105
480.400, 0.103
480.500, 0.102
480.600, 0.097
480.700, 0.107
480.800, 0.104
480.900, 0.102
481.000, 0.102
481.100, 0.115
481.200, 0.107
481.300, 0.113
481.400, 0.107
481.500, 0.111
481.600, 0.110
481.700, 0.112
481.800, 0.110
481.900, 0.102
482.000, 0.123
482.100, 0.108
482.200, 0.110
482.300, 0.106
482.400, 0.107
482.500, 0.102
482.600, 0.114
482.700, 0.098
482.800, 0.106
482.900, 0.108
483.000, 0.102
483.100, 0.110
483.200, 0.107
483.300, 0.111
483.400, 0.114
483.500, 0.111
483.600, 0.117
483.700, 0.111
483.800, 0.107
483.900, 0.108
484.000, 0.107
484.100, 0.105
484.200, 0.110
484.300, 0.104
484.400, 0.109
484.500, 0.109
484.600, 0.110
484.700, 0.096
484.800, 0.104
484.900, 0.097
485.000, 0.101
485.100, 0.096
485.200, 0.095
485.300, 0.093
485.400, 0.098
485.500, 0.096
485.600, 0.107
485.700, 0.103
485.800, 0.104
485.900, 0.103
486.000, 0.110
486.100, 0.105
486.200, 0.094
486.300, 0.108
486.400, 0.117
486.500, 0.109
486.600, 0.109
486.700, 0.111
486.800, 0.113
486.900, 0.103
487.000, 0.109
487.100, 0.113
487.200, 0.107
487.300, 0.115
487.400, 0.119
487.500, 0.118
487.600, 0.123
487.700, 0.118
487.800, 0.113
487.900, 0.096
488.000, 0.114
488.100, 0.108
488.200, 0.098
488.300, 0.103
488.400, 0.093
488.500, 0.091
488.600, 0.086
488.700, 0.101
488.800, 0.101
488.900, 0.106
489.000, 0.106
489.100, 0.105
489.200, 0.102
489.300, 0.098
489.400, 0.095
489.500, 0.096
489.600, 0.107
489.700, 0.101
489.800, 0.096
489.900, 0.113
490.000, 0.102
490.100, 0.105
490.200, 0.103
490.300, 0.103
490.400, 0.115
490.500, 0.119
490.600, 0.108
490.700, 0.111
490.800, 0.107
490.900, 0.100
491.000, 0.103
491.100, 0.102
491.200, 0.103
491.300, 0.104
491.400, 0.096
491.500, 0.095
491.600, 0.085
491.700, 0.090
491.800, 0.100
491.900, 0.109
492.000, 0.108
492.100, 0.107
492.200, 0.112
492.300, 0.118
492.400, 0.102
492.500, 0.107
492.600, 0.108
492.700, 0.101
492.800, 0.107
492.900, 0.110
493.000, 0.112
493.100, 0.117
493.200, 0.093
493.300, 0.097
493.400, 0.103
493.500, 0.113
493.600, 0.101
493.700, 0.093
493.800, 0.100
493.900, 0.105
494.000, 0.096
494.100, 0.095
494.200, 0.103
494.300, 0.108
494.400, 0.106
494.500, 0.099
494.600, 0.095
494.700, 0.090
494.800, 0.092
494.900, 0.097
495.000, 0.098
495.100, 0.105
495.200, 0.106
495.300, 0.096
495.400, 0.103
495.500, 0.108
495.600, 0.104
495.700, 0.110
495.800, 0.105
495.900, 0.105
496.000, 0.100
496.100, 0.107
496.200, 0.118
496.300, 0.115
496.400, 0.110
496.500, 0.109
496.600, 0.114
496.700, 0.112
496.800, 0.123
496.900, 0.112
497.000, 0.116
497.100, 0.120
497.200, 0.127
497.300, 0.114
497.400, 0.116
497.500, 0.113
497.600, 0.102
497.700, 0.106
497.800, 0.117
497.900, 0.115
498.000, 0.116
498.100, 0.102
498.200, 0.119
498.300, 0.115
498.400, 0.111
498.500, 0.111
498.600, 0.109
498.700, 0.105
498.800, 0.098
498.900, 0.112
499.000, 0.115
499.100, 0.101
499.200, 0.119
499.300, 0.102
499.400, 0.099
499.500, 0.097
499.600, 0.110
499.700, 0.110
499.800, 0.113
499.900, 0.100
500.000, 0.113
500.100, 0.112
500.200, 0.116
500.300, 0.109
500.400, 0.107
500.500, 0.111
500.600, 0.107
500.700, 0.116
500.800, 0.112
500.900, 0.117
501.000, 0.112
501.100, 0.112
501.200, 0.119
501.300, 0.107
501.400, 0.114
501.500, 0.110
501.600, 0.116
501.700, 0.107
501.800, 0.109
501.900, 0.118
502.000, 0.110
502.100, 0.113
502.200, 0.109
502.300, 0.106
502.400, 0.105
502.500, 0.109
502.600, 0.106
502.700, 0.106
502.800, 0.112
502.900, 0.110
503.000, 0.111
503.100, 0.117
503.200, 0.114
503.300, 0.101
503.400, 0.103
503.500, 0.117
503.600, 0.124
503.700, 0.110
503.800, 0.123
503.900, 0.113
504.000, 0.116
504.100, 0.125
504.200, 0.125
504.300, 0.128
504.400, 0.119
504.500, 0.125
504.600, 0.125
504.700, 0.115
504.800, 0.124
504.900, 0.117
505.000, 0.117
505.100, 0.116
505.200, 0.131
505.300, 0.116
505.400, 0.124
505.500, 0.114
505.600, 0.109
505.700, 0.111
505.800, 0.117
505.900, 0.119
506.000, 0.118
506.100, 0.120
506.200, 0.114
506.300, 0.108
506.400, 0.111
506.500, 0.110
506.600, 0.097
506.700, 0.092
506.800, 0.107
506.900, 0.098
507.000, 0.106
507.100, 0.103
507.200, 0.101
507.300, 0.104
507.400, 0.105
507.500, 0.105
507.600, 0.104
507.700, 0.109
507.800, 0.105
507.900, 0.113
508.000, 0.105
508.100, 0.103
508.200, 0.099
508.300, 0.102
508.400, 0.102
508.500, 0.094
508.600, 0.093
508.700, 0.088
508.800, 0.099
508.900, 0.097
509.000, 0.101
509.100, 0.099
509.200, 0.101
509.300, 0.095
509.400, 0.094
509.500, 0.097
509.600, 0.098
509.700, 0.094
509.800, 0.100
509.900, 0.101
510.000, 0.107
510.100, 0.111
510.200, 0.099
510.300, 0.100
510.400, 0.106
510.500, 0.100
510.600, 0.109
510.700, 0.093
510.800, 0.102
510.900, 0.104
511.000, 0.103
511.100, 0.100
511.200, 0.109
511.300, 0.111
511.400, 0.112
511.500, 0.108
511.600, 0.112
511.700, 0.105
511.800, 0.114
511.900, 0.108
512.000, 0.117
512.100, 0.108
512.200, 0.106
512.300, 0.103
512.400, 0.107
512.500, 0.104
512.600, 0.103
512.700, 0.102
512.800, 0.099
512.900, 0.097
513.000, 0.100
513.100, 0.097
513.200, 0.104
513.300, 0.103
513.400, 0.102
513.500, 0.109
513.600, 0.098
513.700, 0.102
513.800, 0.104
513.900, 0.100
514.000, 0.103
514.100, 0.112
514.200, 0.104
514.300, 0.102
514.400, 0.097
514.500, 0.106
514.600, 0.102
514.700, 0.107
514.800, 0.104
514.900, 0.099
515.000, 0.094
515.100, 0.099
515.200, 0.101
515.300, 0.090
515.400, 0.099
515.500, 0.100
515.600, 0.101
515.700, 0.096
515.800, 0.106
515.900, 0.105
516.000, 0.101
516.100, 0.107
516.200, 0.108
516.300, 0.101
516.400, 0.107
516.500, 0.105
516.600, 0.104
516.700, 0.101
516.800, 0.111
516.900, 0.104
517.000, 0.113
517.100, 0.112
517.200, 0.105
517.300, 0.109
517.400, 0.106
517.500, 0.105
517.600, 0.114
517.700, 0.106
517.800, 0.115
517.900, 0.108
518.000, 0.104
518.100, 0.106
518.200, 0.100
518.300, 0.111
518.400, 0.117
518.500, 0.119
518.600, 0.117
518.700, 0.122
518.800, 0.125
518.900, 0.119
519.000, 0.113
519.100, 0.127
519.200, 0.112
519.300, 0.117
519.400, 0.120
519.500, 0.126
519.600, 0.115
519.700, 0.115
519.800, 0.113
519.900, 0.112
520.000, 0.118
520.100, 0.127
520.200, 0.122
520.300, 0.124
520.400, 0.118
520.500, 0.114
520.600, 0.118
520.700, 0.109
520.800, 0.108
520.900, 0.109
521.000, 0.114
521.100, 0.108
521.200, 0.118
521.300, 0.110
521.400, 0.106
521.500, 0.100
521.600, 0.100
521.700, 0.093
521.800, 0.099
521.900, 0.099
522.000, 0.094
522.100, 0.101
522.200, 0.100
522.300, 0.099
522.400, 0.097
522.500, 0.098
522.600, 0.113
522.700, 0.096
522.800, 0.098
522.900, 0.103
523.000, 0.106
523.100, 0.103
523.200, 0.100
523.300, 0.098
523.400, 0.107
523.500, 0.095
523.600, 0.096
523.700, 0.110
523.800, 0.107
523.900, 0.101
524.000, 0.110
524.100, 0.108
524.200, 0.108
524.300, 0.103
524.400, 0.105
524.500, 0.105
524.600, 0.100
524.700, 0.103
524.800, 0.105
524.900, 0.110
525.000, 0.109
525.100, 0.111
525.200, 0.111
525.300, 0.116
525.400, 0.111
525.500, 0.111
525.600, 0.117
525.700, 0.119
525.800, 0.109
525.900, 0.113
526.000, 0.123
526.100, 0.114
526.200, 0.119
526.300, 0.120
526.400, 0.110
526.500, 0.112
526.600, 0.117
526.700, 0.121
526.800, 0.106
526.900, 0.112
527.000, 0.117
527.100, 0.112
527.200, 0.114
527.300, 0.118
527.400, 0.113
527.500, 0.121
527.600, 0.121
527.700, 0.120
527.800, 0.113
527.900, 0.117
528.000, 0.114
528.100, 0.110
528.200, 0.111
528.300, 0.113
528.400, 0.121
528.500, 0.116
528.600, 0.131
528.700, 0.120
528.800, 0.128
528.900, 0.125
529.000, 0.116
529.100, 0.119
529.200, 0.118
529.300, 0.117
529.400, 0.123
529.500, 0.118
529.600, 0.115
529.700, 0.110
529.800, 0.115
529.900, 0.113
530.000, 0.113
530.100, 0.117
530.200, 0.116
530.300, 0.124
530.400, 0.119
530.500, 0.116
530.600, 0.135
530.700, 0.126
530.800, 0.130
530.900, 0.121
531.000, 0.116
531.100, 0.114
531.200, 0.104
531.300, 0.115
531.400, 0.104
531.500, 0.110
531.600, 0.105
531.700, 0.103
531.800, 0.103
531.900, 0.109
532.000, 0.111
532.100, 0.113
532.200, 0.121
532.300, 0.115
532.400, 0.111
532.500, 0.114
532.600, 0.106
532.700, 0.111
532.800, 0.111
532.900, 0.104
533.000, 0.113
533.100, 0.112
533.200, 0.115
533.300, 0.111
533.400, 0.101
533.500, 0.109
533.600, 0.105
533.700, 0.108
533.800, 0.107
533.900, 0.114
534.000, 0.114
534.100, 0.118
534.200, 0.108
534.300, 0.105
534.400, 0.102
534.500, 0.101
534.600, 0.105
534.700, 0.116
534.800, 0.112
534.900, 0.102
535.000, 0.104
535.100, 0.111
535.200, 0.117
535.300, 0.125
535.400, 0.120
535.500, 0.111
535.600, 0.120
535.700, 0.123
535.800, 0.113
535.900, 0.119
536.000, 0.111
536.100, 0.109
536.200, 0.117
536.300, 0.124
536.400, 0.125
536.500, 0.131
536.600, 0.123
536.700, 0.123
536.800, 0.126
536.900, 0.129
537.000, 0.122
537.100, 0.139
537.200, 0.124
537.300, 0.125
537.400, 0.115
537.500, 0.120
537.600, 0.126
537.700, 0.118
537.800, 0.122
537.900, 0.113
538.000, 0.115
538.100, 0.114
538.200, 0.116
538.300, 0.114
538.400, 0.118
538.500, 0.121
538.600, 0.123
538.700, 0.134
538.800, 0.134
538.900, 0.139
539.000, 0.137
539.100, 0.127
539.200, 0.124
539.300, 0.124
539.400, 0.113
539.500, 0.115
539.600, 0.123
539.700, 0.126
539.800, 0.125
539.900, 0.118
540.000, 0.116
540.100, 0.115
540.200, 0.107
540.300, 0.109
540.400, 0.109
540.500, 0.115
540.600, 0.108
540.700, 0.104
540.800, 0.108
540.900, 0.104
541.000, 0.097
541.100, 0.110
541.200, 0.109
541.300, 0.112
541.400, 0.096
541.500, 0.104
541.600, 0.102
541.700, 0.111
541.800, 0.110
541.900, 0.102
542.000, 0.100
542.100, 0.096
542.200, 0.095
542.300, 0.102
542.400, 0.097
542.500, 0.100
542.600, 0.101
542.700, 0.106
542.800, 0.107
542.900, 0.097
543.000, 0.105
543.100, 0.106
543.200, 0.109
543.300, 0.111
543.400, 0.107
543.500, 0.114
543.600, 0.105
543.700, 0.106
543.800, 0.111
543.900, 0.115
544.000, 0.114
544.100, 0.111
544.200, 0.107
544.300, 0.111
544.400, 0.112
544.500, 0.128
544.600, 0.119
544.700, 0.118
544.800, 0.122
544.900, 0.118
545.000, 0.118
545.100, 0.108
545.200, 0.110
545.300, 0.097
545.400, 0.101
545.500, 0.114
545.600, 0.102
545.700, 0.108
545.800, 0.114
545.900, 0.113
546.000, 0.112
546.100, 0.121
546.200, 0.115
546.300, 0.117
546.400, 0.111
546.500, 0.115
546.600, 0.115
546.700, 0.106
546.800, 0.107
546.900, 0.108
547.000, 0.109
547.100, 0.110
547.200, 0.108
547.300, 0.118
547.400, 0.115
547.500, 0.111
547.600, 0.110
547.700, 0.111
547.800, 0.115
547.900, 0.112
548.000, 0.113
548.100, 0.122
548.200, 0.114
548.300, 0.108
548.400, 0.108
548.500, 0.106
548.600, 0.115
548.700, 0.126
548.800, 0.116
548.900, 0.116
549.000, 0.119
549.100, 0.108
549.200, 0.121
549.300, 0.120
549.400, 0.111
549.500, 0.106
549.600, 0.105
549.700, 0.097
549.800, 0.113
549.900, 0.103
550.000, 0.120
550.100, 0.115
550.200, 0.106
550.300, 0.101
550.400, 0.101
550.500, 0.105
550.600, 0.099
550.700, 0.108
550.800, 0.099
550.900, 0.123
551.000, 0.115
551.100, 0.114
551.200, 0.104
551.300, 0.104
551.400, 0.105
551.500, 0.109
551.600, 0.108
551.700, 0.111
551.800, 0.109
551.900, 0.115
552.000, 0.112
552.100, 0.101
552.200, 0.102
552.300, 0.097
552.400, 0.101
552.500, 0.097
552.600, 0.100
552.700, 0.104
552.800, 0.100
552.900, 0.100
553.000, 0.107
553.100, 0.115
553.200, 0.095
553.300, 0.096
553.400, 0.098
553.500, 0.101
553.600, 0.089
553.700, 0.095
553.800, 0.100
553.900, 0.093
554.000, 0.101
554.100, 0.100
554.200, 0.105
554.300, 0.108
554.400, 0.113
554.500, 0.098
554.600, 0.098
554.700, 0.109
554.800, 0.102
554.900, 0.107
555.000, 0.107
555.100, 0.115
555.200, 0.113
555.300, 0.111
555.400, 0.118
555.500, 0.105
555.600, 0.115
555.700, 0.112
555.800, 0.108
555.900, 0.118
556.000, 0.111
556.100, 0.105
556.200, 0.113
556.300, 0.119
556.400, 0.109
556.500, 0.111
556.600, 0.103
556.700, 0.102
556.800, 0.094
556.900, 0.092
557.000, 0.108
557.100, 0.095
557.200, 0.088
557.300, 0.096
557.400, 0.100
557.500, 0.093
557.600, 0.088
557.700, 0.091
557.800, 0.095
557.900, 0.095
558.000, 0.100
558.100, 0.111
558.200, 0.107
558.300, 0.111
558.400, 0.102
558.500, 0.100
558.600, 0.103
558.700, 0.100
558.800, 0.093
558.900, 0.100
559.000, 0.093
559.100, 0.107
559.200, 0.113
559.300, 0.110
559.400, 0.108
559.500, 0.105
559.600, 0.098
559.700, 0.095
559.800, 0.098
559.900, 0.107
560.000, 0.102
560.100, 0.102
560.200, 0.117
560.300, 0.111
560.400, 0.116
560.500, 0.111
560.600, 0.107
560.700, 0.104
560.800, 0.104
560.900, 0.099
561.000, 0.105
561.100, 0.117
561.200, 0.105
561.300, 0.093
561.400, 0.100
561.500, 0.099
561.600, 0.085
561.700, 0.101
561.800, 0.101
561.900, 0.110
562.000, 0.100
562.100, 0.101
562.200, 0.091
562.300, 0.104
562.400, 0.103
562.500, 0.105
562.600, 0.089
562.700, 0.098
562.800, 0.098
562.900, 0.095
563.000, 0.111
563.100, 0.099
563.200, 0.095
563.300, 0.094
563.400, 0.091
563.500, 0.096
563.600, 0.095
563.700, 0.088
563.800, 0.098
563.900, 0.091
564.000, 0.091
564.100, 0.106
564.200, 0.101
564.300, 0.102
564.400, 0.104
564.500, 0.131
564.600, 0.109
564.700, 0.110
564.800, 0.120
564.900, 0.106
565.000, 0.107
565.100, 0.114
565.200, 0.112
565.300, 0.113
565.400, 0.103
565.500, 0.106
565.600, 0.105
565.700, 0.096
565.800, 0.097
565.900, 0.094
566.000, 0.096
566.100, 0.099
566.200, 0.105
566.300, 0.090
566.400, 0.096
566.500, 0.101
566.600, 0.092
566.700, 0.102
566.800, 0.100
566.900, 0.100
567.000, 0.096
567.100, 0.089
567.200, 0.093
567.300, 0.092
567.400, 0.097
567.500, 0.095
567.600, 0.088
567.700, 0.098
567.800, 0.098
567.900, 0.100
568.000, 0.104
568.100, 0.100
568.200, 0.102
568.300, 0.111
568.400, 0.129
568.500, 0.115
568.600, 0.101
568.700, 0.103
568.800, 0.091
568.900, 0.106
569.000, 0.097
569.100, 0.102
569.200, 0.099
569.300, 0.104
569.400, 0.104
569.500, 0.091
569.600, 0.097
569.700, 0.103
569.800, 0.102
569.900, 0.100
570.000, 0.104
570.100, 0.103
570.200, 0.108
570.300, 0.098
570.400, 0.098
570.500, 0.091
570.600, 0.094
570.700, 0.103
570.800, 0.110
570.900, 0.100
571.000, 0.106
571.100, 0.096
571.200, 0.103
571.300, 0.098
571.400, 0.107
571.500, 0.119
571.600, 0.095
571.700, 0.103
571.800, 0.096
571.900, 0.098
572.000, 0.097
572.100, 0.111
572.200, 0.106
572.300, 0.105
572.400, 0.104
572.500, 0.095
572.600, 0.107
572.700, 0.098
572.800, 0.107
572.900, 0.110
573.000, 0.099
573.100, 0.107
573.200, 0.107
573.300, 0.111
573.400, 0.108
573.500, 0.115
573.600, 0.116
573.700, 0.109
573.800, 0.113
573.900, 0.116
574.000, 0.119
574.100, 0.109
574.200, 0.109
574.300, 0.111
574.400, 0.111
574.500, 0.106
574.600, 0.106
574.700, 0.104
574.800, 0.099
574.900, 0.101
575.000, 0.097
575.100, 0.094
575.200, 0.094
575.300, 0.101
575.400, 0.096
575.500, 0.101
575.600, 0.103
575.700, 0.096
575.800, 0.104
575.900, 0.101
576.000, 0.094
576.100, 0.094
576.200, 0.097
576.300, 0.110
576.400, 0.105
576.500, 0.102
576.600, 0.098
576.700, 0.103
576.800, 0.105
576.900, 0.118
577.000, 0.120
577.100, 0.108
577.200, 0.102
577.300, 0.108
577.400, 0.111
577.500, 0.109
577.600, 0.099
577.700, 0.099
577.800, 0.110
577.900, 0.113
578.000, 0.118
578.100, 0.116
578.200, 0.113
578.300, 0.107
578.400, 0.098
578.500, 0.094
578.600, 0.100
578.700, 0.109
578.800, 0.100
578.900, 0.096
579.000, 0.094
579.100, 0.099
579.200, 0.093
579.300, 0.096
579.400, 0.096
579.500, 0.102
579.600, 0.113
579.700, 0.091
579.800, 0.090
579.900, 0.097
580.000, 0.094
580.100, 0.096
580.200, 0.099
580.300, 0.099
580.400, 0.105
580.500, 0.099
580.600, 0.103
580.700, 0.098
580.800, 0.102
580.900, 0.112
581.000, 0.122
581.100, 0.098
581.200, 0.100
581.300, 0.101
581.400, 0.096
581.500, 0.093
581.600, 0.096
581.700, 0.104
581.800, 0.111
581.900, 0.105
582.000, 0.096
582.100, 0.104
582.200, 0.105
582.300, 0.118
582.400, 0.106
582.500, 0.095
582.600, 0.106
582.700, 0.103
582.800, 0.107
582.900, 0.096
583.000, 0.093
583.100, 0.108
583.200, 0.111
583.300, 0.109
583.400, 0.110
583.500, 0.103
583.600, 0.102
583.700, 0.105
583.800, 0.111
583.900, 0.112
584.000, 0.101
584.100, 0.100
584.200, 0.097
584.300, 0.115
584.400, 0.110
584.500, 0.106
584.600, 0.120
584.700, 0.120
584.800, 0.108
584.900, 0.113
585.000, 0.108
585.100, 0.113
585.200, 0.097
585.300, 0.108
585.400, 0.113
585.500, 0.114
585.600, 0.108
585.700, 0.105
585.800, 0.110
585.900, 0.102
586.000, 0.106
586.100, 0.103
586.200, 0.106
586.300, 0.095
586.400, 0.098
586.500, 0.082
586.600, 0.085
586.700, 0.083
586.800, 0.077
586.900, 0.086
587.000, 0.085
587.100, 0.095
587.200, 0.099
587.300, 0.102
587.400, 0.092
587.500, 0.088
587.600, 0.094
587.700, 0.089
587.800, 0.093
587.900, 0.089
588.000, 0.096
588.100, 0.095
588.200, 0.092
588.300, 0.086
588.400, 0.081
588.500, 0.081
588.600, 0.091
588.700, 0.093
588.800, 0.093
588.900, 0.090
589.000, 0.090
589.100, 0.095
589.200, 0.102
589.300, 0.103
589.400, 0.096
589.500, 0.098
589.600, 0.098
589.700, 0.091
589.800, 0.102
589.900, 0.098
590.000, 0.095
590.100, 0.095
590.200, 0.093
590.300, 0.087
590.400, 0.090
590.500, 0.090
590.600, 0.095
590.700, 0.093
590.800, 0.087
590.900, 0.086
591.000, 0.085
591.100, 0.090
591.200, 0.089
591.300, 0.094
591.400, 0.093
591.500, 0.091
591.600, 0.088
591.700, 0.092
591.800, 0.089
591.900, 0.092
592.000, 0.081
592.100, 0.089
592.200, 0.092
592.300, 0.096
592.400, 0.083
592.500, 0.088
592.600, 0.090
592.700, 0.084
592.800, 0.099
592.900, 0.092
593.000, 0.098
593.100, 0.096
593.200, 0.087
593.300, 0.093
593.400, 0.096
593.500, 0.091
593.600, 0.095
593.700, 0.087
593.800, 0.092
593.900, 0.087
594.000, 0.087
594.100, 0.089
594.200, 0.093
594.300, 0.087
594.400, 0.089
594.500, 0.093
594.600, 0.095
594.700, 0.089
594.800, 0.088
594.900, 0.094
595.000, 0.095
595.100, 0.102
595.200, 0.105
595.300, 0.105
595.400, 0.100
595.500, 0.095
595.600, 0.102
595.700, 0.090
595.800, 0.096
595.900, 0.102
596.000, 0.097
596.100, 0.094
596.200, 0.104
596.300, 0.105
596.400, 0.102
596.500, 0.095
596.600, 0.107
596.700, 0.097
596.800, 0.100
596.900, 0.101
597.000, 0.107
597.100, 0.096
597.200, 0.104
597.300, 0.101
597.400, 0.092
597.500, 0.093
597.600, 0.097
597.700, 0.099
597.800, 0.104
597.900, 0.099
598.000, 0.104
598.100, 0.108
598.200, 0.106
598.300, 0.110
598.400, 0.096
598.500, 0.094
598.600, 0.093
598.700, 0.098
598.800, 0.097
598.900, 0.097
599.000, 0.098
599.100, 0.094
599.200, 0.101
599.300, 0.098
599.400, 0.101
599.500, 0.099
599.600, 0.098
599.700, 0.093
599.800, 0.092
599.900, 0.097
600.000, 0.097
600.100, 0.101
600.200, 0.101
600.300, 0.099
600.400, 0.106
600.500, 0.102
600.600, 0.102
600.700, 0.099
600.800, 0.114
600.900, 0.115
601.000, 0.119
601.100, 0.111
601.200, 0.099
601.300, 0.105
601.400, 0.101
601.500, 0.110
601.600, 0.110
601.700, 0.106
601.800, 0.101
601.900, 0.103
602.000, 0.108
602.100, 0.102
602.200, 0.115
602.300, 0.110
602.400, 0.102
602.500, 0.095
602.600, 0.095
602.700, 0.091
602.800, 0.092
602.900, 0.098
603.000, 0.099
603.100, 0.103
603.200, 0.098
603.300, 0.108
603.400, 0.093
603.500, 0.103
603.600, 0.089
603.700, 0.097
603.800, 0.096
603.900, 0.104
604.000, 0.100
604.100, 0.093
604.200, 0.091
604.300, 0.094
604.400, 0.103
604.500, 0.104
604.600, 0.105
604.700, 0.101
604.800, 0.112
604.900, 0.097
605.000, 0.101
605.100, 0.099
605.200, 0.108
605.300, 0.102
605.400, 0.089
605.500, 0.104
605.600, 0.109
605.700, 0.094
605.800, 0.095
605.900, 0.097
606.000, 0.098
606.100, 0.097
606.200, 0.088
606.300, 0.097
606.400, 0.093
606.500, 0.097
606.600, 0.094
606.700, 0.097
606.800, 0.092
606.900, 0.100
607.000, 0.096
607.100, 0.097
607.200, 0.091
607.300, 0.102
607.400, 0.104
607.500, 0.103
607.600, 0.093
607.700, 0.097
607.800, 0.108
607.900, 0.104
608.000, 0.107
608.100, 0.094
608.200, 0.101
608.300, 0.099
608.400, 0.093
608.500, 0.105
608.600, 0.094
608.700, 0.101
608.800, 0.095
608.900, 0.098
609.000, 0.096
609.100, 0.102
609.200, 0.100
609.300, 0.094
609.400, 0.103
609.500, 0.102
609.600, 0.103
609.700, 0.094
609.800, 0.102
609.900, 0.099
610.000, 0.102
610.100, 0.102
610.200, 0.094
610.300, 0.091
610.400, 0.107
610.500, 0.099
610.600, 0.101
610.700, 0.092
610.800, 0.096
610.900, 0.098
611.000, 0.105
611.100, 0.097
611.200, 0.104
611.300, 0.101
611.400, 0.107
611.500, 0.098
611.600, 0.098
611.700, 0.102
611.800, 0.092
611.900, 0.097
612.000, 0.104
612.100, 0.108
612.200, 0.093
612.300, 0.099
612.400, 0.093
612.500, 0.098
612.600, 0.099
612.700, 0.102
612.800, 0.095
612.900, 0.104
613.000, 0.106
613.100, 0.101
613.200, 0.100
613.300, 0.089
613.400, 0.093
613.500, 0.090
613.600, 0.093
613.700, 0.096
613.800, 0.099
613.900, 0.094
614.000, 0.094
614.100, 0.094
614.200, 0.096
614.300, 0.092
614.400, 0.111
614.500, 0.104
614.600, 0.097
614.700, 0.094
614.800, 0.106
614.900, 0.100
615.000, 0.106
615.100, 0.097
615.200, 0.098
615.300, 0.099
615.400, 0.097
615.500, 0.106
615.600, 0.095
615.700, 0.096
615.800, 0.093
615.900, 0.099
616.000, 0.088
616.100, 0.090
616.200, 0.085
616.300, 0.092
616.400, 0.089
616.500, 0.101
616.600, 0.103
616.700, 0.100
616.800, 0.092
616.900, 0.095
617.000, 0.108
617.100, 0.096
617.200, 0.098
617.300, 0.097
617.400, 0.098
617.500, 0.101
617.600, 0.101
617.700, 0.105
617.800, 0.098
617.900, 0.102
618.000, 0.099
618.100, 0.092
618.200, 0.102
618.300, 0.092
618.400, 0.084
618.500, 0.091
618.600, 0.094
618.700, 0.090
618.800, 0.095
618.900, 0.086
619.000, 0.099
619.100, 0.101
619.200, 0.098
619.300, 0.106
619.400, 0.095
619.500, 0.100
619.600, 0.098
619.700, 0.097
619.800, 0.098
619.900, 0.101
620.000, 0.100
620.100, 0.111
620.200, 0.097
620.300, 0.097
620.400, 0.101
620.500, 0.099
620.600, 0.102
620.700, 0.097
620.800, 0.097
620.900, 0.099
621.000, 0.104
621.100, 0.101
621.200, 0.101
621.300, 0.101
621.400, 0.096
621.500, 0.088
621.600, 0.099
621.700, 0.098
621.800, 0.090
621.900, 0.100
622.000, 0.112
622.100, 0.106
622.200, 0.110
622.300, 0.107
622.400, 0.100
622.500, 0.097
622.600, 0.104
622.700, 0.099
622.800, 0.094
622.900, 0.102
623.000, 0.097
623.100, 0.099
623.200, 0.096
623.300, 0.100
623.400, 0.097
623.500, 0.098
623.600, 0.094
623.700, 0.100
623.800, 0.103
623.900, 0.098
624.000, 0.093
624.100, 0.103
624.200, 0.093
624.300, 0.096
624.400, 0.097
624.500, 0.105
624.600, 0.098
624.700, 0.101
624.800, 0.108
624.900, 0.099
625.000, 0.096
625.100, 0.104
625.200, 0.094
625.300, 0.088
625.400, 0.092
625.500, 0.098
625.600, 0.097
625.700, 0.101
625.800, 0.102
625.900, 0.095
626.000, 0.090
626.100, 0.095
626.200, 0.093
626.300, 0.097
626.400, 0.089
626.500, 0.090
626.600, 0.101
626.700, 0.101
626.800, 0.096
626.900, 0.098
627.000, 0.101
627.100, 0.101
627.200, 0.096
627.300, 0.099
627.400, 0.092
627.500, 0.096
627.600, 0.093
627.700, 0.100
627.800, 0.108
627.900, 0.103
628.000, 0.108
628.100, 0.099
628.200, 0.094
628.300, 0.094
628.400, 0.107
628.500, 0.104
628.600, 0.099
628.700, 0.103
628.800, 0.120
628.900, 0.117
629.000, 0.120
629.100, 0.109
629.200, 0.108
629.300, 0.117
629.400, 0.102
629.500, 0.097
629.600, 0.104
629.700, 0.111
629.800, 0.110
629.900, 0.121
630.000, 0.092
630.100, 0.097
630.200, 0.105
630.300, 0.102
630.400, 0.091
630.500, 0.099
630.600, 0.096
630.700, 0.098
630.800, 0.100
630.900, 0.103
631.000, 0.103
631.100, 0.100
631.200, 0.100
631.300, 0.098
631.400, 0.099
631.500, 0.102
631.600, 0.094
631.700, 0.100
631.800, 0.101
631.900, 0.094
632.000, 0.102
632.100, 0.097
632.200, 0.100
632.300, 0.096
632.400, 0.105
632.500, 0.105
632.600, 0.115
632.700, 0.117
632.800, 0.117
632.900, 0.118
633.000, 0.107
633.100, 0.106
633.200, 0.113
633.300, 0.102
633.400, 0.115
633.500, 0.113
633.600, 0.109
633.700, 0.116
633.800, 0.107
633.900, 0.107
634.000, 0.105
634.100, 0.112
634.200, 0.112
634.300, 0.111
634.400, 0.117
634.500, 0.124
634.600, 0.120
634.700, 0.124
634.800, 0.115
634.900, 0.120
635.000, 0.120
635.100, 0.123
635.200, 0.115
635.300, 0.111
635.400, 0.110
635.500, 0.121
635.600, 0.117
635.700, 0.120
635.800, 0.126
635.900, 0.124
636.000, 0.119
636.100, 0.128
636.200, 0.118
636.300, 0.121
636.400, 0.118
636.500, 0.122
636.600, 0.116
636.700, 0.118
636.800, 0.119
636.900, 0.118
637.000, 0.116
637.100, 0.113
637.200, 0.116
637.300, 0.118
637.400, 0.120
637.500, 0.115
637.600, 0.120
637.700, 0.117
637.800, 0.117
637.900, 0.121
638.000, 0.123
638.100, 0.122
638.200, 0.121
638.300, 0.119
638.400, 0.118
638.500, 0.113
638.600, 0.113
638.700, 0.118
638.800, 0.122
638.900, 0.130
639.000, 0.117
639.100, 0.110
639.200, 0.110
639.300, 0.125
639.400, 0.113
639.500, 0.126
639.600, 0.121
639.700, 0.128
639.800, 0.112
639.900, 0.126
640.000, 0.114
640.100, 0.117
640.200, 0.126
640.300, 0.127
640.400, 0.134
640.500, 0.127
640.600, 0.133
640.700, 0.120
640.800, 0.118
640.900, 0.120
641.000, 0.122
641.100, 0.114
641.200, 0.124
641.300, 0.109
641.400, 0.106
641.500, 0.110
641.600, 0.102
641.700, 0.109
641.800, 0.115
641.900, 0.115
642.000, 0.110
642.100, 0.119
642.200, 0.123
642.300, 0.120
642.400, 0.127
642.500, 0.125
642.600, 0.134
642.700, 0.128
642.800, 0.128
642.900, 0.141
643.000, 0.127
643.100, 0.117
643.200, 0.129
643.300, 0.126
643.400, 0.120
643.500, 0.121
643.600, 0.116
643.700, 0.111
643.800, 0.116
643.900, 0.113
644.000, 0.119
644.100, 0.115
644.200, 0.116
644.300, 0.116
644.400, 0.108
644.500, 0.115
644.600, 0.118
644.700, 0.113
644.800, 0.107
644.900, 0.117
645.000, 0.115
645.100, 0.121
645.200, 0.137
645.300, 0.132
645.400, 0.120
645.500, 0.117
645.600, 0.132
645.700, 0.141
645.800, 0.120
645.900, 0.129
646.000, 0.123
646.100, 0.124
646.200, 0.111
646.300, 0.121
646.400, 0.121
646.500, 0.117
646.600, 0.109
646.700, 0.112
646.800, 0.113
646.900, 0.116
647.000, 0.111
647.100, 0.111
647.200, 0.116
647.300, 0.107
647.400, 0.102
647.500, 0.110
647.600, 0.101
647.700, 0.112
647.800, 0.100
647.900, 0.100
648.000, 0.107
648.100, 0.098
648.200, 0.101
648.300, 0.106
648.400, 0.102
648.500, 0.114
648.600, 0.099
648.700, 0.106
648.800, 0.107
648.900, 0.103
649.000, 0.103
649.100, 0.111
649.200, 0.105
649.300, 0.099
649.400, 0.102
649.500, 0.103
649.600, 0.101
649.700, 0.111
649.800, 0.097
649.900, 0.104
650.000, 0.107
650.100, 0.107
650.200, 0.109
650.300, 0.105
650.400, 0.108
650.500, 0.098
650.600, 0.101
650.700, 0.105
650.800, 0.115
650.900, 0.101
651.000, 0.114
651.100, 0.117
651.200, 0.107
651.300, 0.114
651.400, 0.111
651.500, 0.109
651.600, 0.116
651.700, 0.119
651.800, 0.116
651.900, 0.110
652.000, 0.103
652.100, 0.106
652.200, 0.106
652.300, 0.099
652.400, 0.111
652.500, 0.111
652.600, 0.107
652.700, 0.096
652.800, 0.099
652.900, 0.102
653.000, 0.108
653.100, 0.109
653.200, 0.097
653.300, 0.101
653.400, 0.095
653.500, 0.097
653.600, 0.092
653.700, 0.100
653.800, 0.096
653.900, 0.098
654.000, 0.095
654.100, 0.099
654.200, 0.100
654.300, 0.097
654.400, 0.096
654.500, 0.096
654.600, 0.096
654.700, 0.096
654.800, 0.091
654.900, 0.089
655.000, 0.093
655.100, 0.097
655.200, 0.096
655.300, 0.092
655.400, 0.091
655.500, 0.096
655.600, 0.101
655.700, 0.100
655.800, 0.101
655.900, 0.102
656.000, 0.095
656.100, 0.100
656.200, 0.101
656.300, 0.097
656.400, 0.103
656.500, 0.104
656.600, 0.106
656.700, 0.102
656.800, 0.102
656.900, 0.101
657.000, 0.104
657.100, 0.098
657.200, 0.107
657.300, 0.103
657.400, 0.101
657.500, 0.101
657.600, 0.098
657.700, 0.094
657.800, 0.095
657.900, 0.094
658.000, 0.101
658.100, 0.110
658.200, 0.108
658.300, 0.107
658.400, 0.093
658.500, 0.099
658.600, 0.106
658.700, 0.108
658.800, 0.102
658.900, 0.096
659.000, 0.096
659.100, 0.105
659.200, 0.097
659.300, 0.094
659.400, 0.095
659.500, 0.094
659.600, 0.103
659.700, 0.096
659.800, 0.103
659.900, 0.100
660.000, 0.092
660.100, 0.093
660.200, 0.099
660.300, 0.096
660.400, 0.094
660.500, 0.108
660.600, 0.097
660.700, 0.099
660.800, 0.096
660.900, 0.090
661.000, 0.095
661.100, 0.101
661.200, 0.100
661.300, 0.110
661.400, 0.108
661.500, 0.112
661.600, 0.105
661.700, 0.112
661.800, 0.100
661.900, 0.100
662.000, 0.106
662.100, 0.108
662.200, 0.107
662.300, 0.103
662.400, 0.107
662.500, 0.106
662.600, 0.101
662.700, 0.106
662.800, 0.113
662.900, 0.117
663.000, 0.105
663.100, 0.100
663.200, 0.104
663.300, 0.100
663.400, 0.091
663.500, 0.099
663.600, 0.105
663.700, 0.101
663.800, 0.098
663.900, 0.094
664.000, 0.095
664.100, 0.104
664.200, 0.116
664.300, 0.106
664.400, 0.106
664.500, 0.102
664.600, 0.108
664.700, 0.103
664.800, 0.100
664.900, 0.098
665.000, 0.100
665.100, 0.097
665.200, 0.103
665.300, 0.095
665.400, 0.101
665.500, 0.106
665.600, 0.103
665.700, 0.110
665.800, 0.103
665.900, 0.099
666.000, 0.100
666.100, 0.101
666.200, 0.101
666.300, 0.102
666.400, 0.092
666.500, 0.105
666.600, 0.101
666.700, 0.095
666.800, 0.096
666.900, 0.098
667.000, 0.093
667.100, 0.090
667.200, 0.088
667.300, 0.089
667.400, 0.095
667.500, 0.094
667.600, 0.088
667.700, 0.088
667.800, 0.093
667.900, 0.104
668.000, 0.093
668.100, 0.101
668.200, 0.091
668.300, 0.094
668.400, 0.094
668.500, 0.096
668.600, 0.102
668.700, 0.091
668.800, 0.098
668.900, 0.099
669.000, 0.099
669.100, 0.106
669.200, 0.098
669.300, 0.113
669.400, 0.118
669.500, 0.102
669.600, 0.109
669.700, 0.101
669.800, 0.102
669.900, 0.105
670.000, 0.099
670.100, 0.099
670.200, 0.094
670.300, 0.097
670.400, 0.100
670.500, 0.108
670.600, 0.097
670.700, 0.115
670.800, 0.096
670.900, 0.106
671.000, 0.110
671.100, 0.105
671.200, 0.099
671.300, 0.097
671.400, 0.107
671.500, 0.106
671.600, 0.096
671.700, 0.101
671.800, 0.109
671.900, 0.110
672.000, 0.110
672.100, 0.106
672.200, 0.110
672.300, 0.103
672.400, 0.112
672.500, 0.109
672.600, 0.116
672.700, 0.122
672.800, 0.112
672.900, 0.104
673.000, 0.105
673.100, 0.117
673.200, 0.104
673.300, 0.117
673.400, 0.113
673.500, 0.105
673.600, 0.097
673.700, 0.106
673.800, 0.092
673.900, 0.095
674.000, 0.097
674.100, 0.089
674.200, 0.099
674.300, 0.098
674.400, 0.104
674.500, 0.103
674.600, 0.092
674.700, 0.098
674.800, 0.097
674.900, 0.102
675.000, 0.124
675.100, 0.111
675.200, 0.112
675.300, 0.114
675.400, 0.103
675.500, 0.119
675.600, 0.107
675.700, 0.108
675.800, 0.114
675.900, 0.108
676.000, 0.108
676.100, 0.112
676.200, 0.104
676.300, 0.105
676.400, 0.104
676.500, 0.101
676.600, 0.103
676.700, 0.102
676.800, 0.090
676.900, 0.101
677.000, 0.100
677.100, 0.108
677.200, 0.097
677.300, 0.107
677.400, 0.104
677.500, 0.106
677.600, 0.103
677.700, 0.103
677.800, 0.100
677.900, 0.094
678.000, 0.101
678.100, 0.098
678.200, 0.100
678.300, 0.099
678.400, 0.089
678.500, 0.091
678.600, 0.095
678.700, 0.098
678.800, 0.100
678.900, 0.100
679.000, 0.102
679.100, 0.104
679.200, 0.104
679.300, 0.106
679.400, 0.104
679.500, 0.110
679.600, 0.102
679.700, 0.115
679.800, 0.111
679.900, 0.099
680.000, 0.102
680.100, 0.097
680.200, 0.101
680.300, 0.110
680.400, 0.101
680.500, 0.115
680.600, 0.110
680.700, 0.101
680.800, 0.104
680.900, 0.100
681.000, 0.103
681.100, 0.100
681.200, 0.095
681.300, 0.098
681.400, 0.099
681.500, 0.092
681.600, 0.109
681.700, 0.097
681.800, 0.083
681.900, 0.100
682.000, 0.098
682.100, 0.102
682.200, 0.099
682.300, 0.095
682.400, 0.086
682.500, 0.084
682.600, 0.095
682.700, 0.086
682.800, 0.092
682.900, 0.094
683.000, 0.099
683.100, 0.096
683.200, 0.090
683.300, 0.092
683.400, 0.094
683.500, 0.092
683.600, 0.097
683.700, 0.090
683.800, 0.093
683.900, 0.089
684.000, 0.082
684.100, 0.091
684.200, 0.091
684.300, 0.100
684.400, 0.097
684.500, 0.094
684.600, 0.086
684.700, 0.092
684.800, 0.093
684.900, 0.098
685.000, 0.103
685.100, 0.096
685.200, 0.097
685.300, 0.105
685.400, 0.099
685.500, 0.098
685.600, 0.093
685.700, 0.088
685.800, 0.100
685.900, 0.091
686.000, 0.084
686.100, 0.085
686.200, 0.085
686.300, 0.085
686.400, 0.085
686.500, 0.086
686.600, 0.094
686.700, 0.091
686.800, 0.092
686.900, 0.091
687.000, 0.088
687.100, 0.086
687.200, 0.085
687.300, 0.090
687.400, 0.088
687.500, 0.088
687.600, 0.100
687.700, 0.099
687.800, 0.096
687.900, 0.099
688.000, 0.096
688.100, 0.095
688.200, 0.098
688.300, 0.100
688.400, 0.097
688.500, 0.095
688.600, 0.098
688.700, 0.101
688.800, 0.095
688.900, 0.104
689.000, 0.097
689.100, 0.093
689.200, 0.089
689.300, 0.093
689.400, 0.083
689.500, 0.090
689.600, 0.089
689.700, 0.095
689.800, 0.094
689.900, 0.097
690.000, 0.103
690.100, 0.096
690.200, 0.103
690.300, 0.098
690.400, 0.103
690.500, 0.104
690.600, 0.105
690.700, 0.098
690.800, 0.094
690.900, 0.105
691.000, 0.098
691.100, 0.097
691.200, 0.093
691.300, 0.094
691.400, 0.095
691.500, 0.096
691.600, 0.102
691.700, 0.095
691.800, 0.093
691.900, 0.094
692.000, 0.100
692.100, 0.090
692.200, 0.093
692.300, 0.096
692.400, 0.089
692.500, 0.107
692.600, 0.090
692.700, 0.084
692.800, 0.091
692.900, 0.099
693.000, 0.098
693.100, 0.085
693.200, 0.091
693.300, 0.091
693.400, 0.096
693.500, 0.104
693.600, 0.115
693.700, 0.107
693.800, 0.103
693.900, 0.097
694.000, 0.095
694.100, 0.102
694.200, 0.101
694.300, 0.110
694.400, 0.101
694.500, 0.104
694.600, 0.093
694.700, 0.098
694.800, 0.099
694.900, 0.098
695.000, 0.099
695.100, 0.120
695.200, 0.135
695.300, 0.120
695.400, 0.109
695.500, 0.114
695.600, 0.108
695.700, 0.117
695.800, 0.118
695.900, 0.096
696.000, 0.108
696.100, 0.107
696.200, 0.111
696.300, 0.101
696.400, 0.105
696.500, 0.099
696.600, 0.107
696.700, 0.097
696.800, 0.090
696.900, 0.090
697.000, 0.093
697.100, 0.093
697.200, 0.090
697.300, 0.086
697.400, 0.094
697.500, 0.088
697.600, 0.091
697.700, 0.094
697.800, 0.086
697.900, 0.095
698.000, 0.094
698.100, 0.089
698.200, 0.087
698.300, 0.086
698.400, 0.097
698.500, 0.103
698.600, 0.103
698.700, 0.097
698.800, 0.093
698.900, 0.099
699.000, 0.095
699.100, 0.098
699.200, 0.102
699.300, 0.099
699.400, 0.095
699.500, 0.087
699.600, 0.096
699.700, 0.100
699.800, 0.098
699.900, 0.107
700.000, 0.106
700.100, 0.098
700.200, 0.101
700.300, 0.101
700.400, 0.107
700.500, 0.114
700.600, 0.106
700.700, 0.111
700.800, 0.100
700.900, 0.099
701.000, 0.100
701.100, 0.110
701.200, 0.109
701.300, 0.115
701.400, 0.112
701.500, 0.118
701.600, 0.109
701.700, 0.109
701.800, 0.118
701.900, 0.112
702.000, 0.112
702.100, 0.106
702.200, 0.101
702.300, 0.105
702.400, 0.109
702.500, 0.111
702.600, 0.102
702.700, 0.112
702.800, 0.116
702.900, 0.117
703.000, 0.114
703.100, 0.123
703.200, 0.109
703.300, 0.107
703.400, 0.109
703.500, 0.113
703.600, 0.105
703.700, 0.104
703.800, 0.100
703.900, 0.094
704.000, 0.095
704.100, 0.098
704.200, 0.102
704.300, 0.109
704.400, 0.117
704.500, 0.110
704.600, 0.109
704.700, 0.119
704.800, 0.109
704.900, 0.111
705.000, 0.105
705.100, 0.106
705.200, 0.107
705.300, 0.108
705.400, 0.095
705.500, 0.092
705.600, 0.092
705.700, 0.099
705.800, 0.108
705.900, 0.108
706.000, 0.102
706.100, 0.102
706.200, 0.104
706.300, 0.102
706.400, 0.098
706.500, 0.113
706.600, 0.104
706.700, 0.105
706.800, 0.104
706.900, 0.103
707.000, 0.100
707.100, 0.096
707.200, 0.102
707.300, 0.099
707.400, 0.112
707.500, 0.115
707.600, 0.114
707.700, 0.119
707.800, 0.116
707.900, 0.119
708.000, 0.113
708.100, 0.110
708.200, 0.107
708.300, 0.113
708.400, 0.111
708.500, 0.111
708.600, 0.116
708.700, 0.108
708.800, 0.097
708.900, 0.107
709.000, 0.105
709.100, 0.096
709.200, 0.102
709.300, 0.096
709.400, 0.096
709.500, 0.098
709.600, 0.103
709.700, 0.098
709.800, 0.103
709.900, 0.098
710.000, 0.106
710.100, 0.104
710.200, 0.106
710.300, 0.112
710.400, 0.108
710.500, 0.116
710.600, 0.107
710.700, 0.100
710.800, 0.112
710.900, 0.098
711.000, 0.091
711.100, 0.104
711.200, 0.105
711.300, 0.097
711.400, 0.096
711.500, 0.100
711.600, 0.099
711.700, 0.095
711.800, 0.099
711.900, 0.091
712.000, 0.099
712.100, 0.096
712.200, 0.100
712.300, 0.108
712.400, 0.107
712.500, 0.096
712.600, 0.106
712.700, 0.104
712.800, 0.094
712.900, 0.103
713.000, 0.105
713.100, 0.106
713.200, 0.107
713.300, 0.101
713.400, 0.103
713.500, 0.105
713.600, 0.117
713.700, 0.109
713.800, 0.102
713.900, 0.097
714.000, 0.101
714.100, 0.092
714.200, 0.095
714.300, 0.099
714.400, 0.103
714.500, 0.097
714.600, 0.101
714.700, 0.100
714.800, 0.100
714.900, 0.105
715.000, 0.099
715.100, 0.101
715.200, 0.101
715.300, 0.096
715.400, 0.096
715.500, 0.101
715.600, 0.103
715.700, 0.107
715.800, 0.102
715.900, 0.094
716.000, 0.099
716.100, 0.097
716.200, 0.095
716.300, 0.090
716.400, 0.093
716.500, 0.108
716.600, 0.101
716.700, 0.093
716.800, 0.092
716.900, 0.088
717.000, 0.091
717.100, 0.095
717.200, 0.096
717.300, 0.092
717.400, 0.094
717.500, 0.096
717.600, 0.087
717.700, 0.092
717.800, 0.097
717.900, 0.090
718.000, 0.091
718.100, 0.095
718.200, 0.094
718.300, 0.096
718.400, 0.095
718.500, 0.106
718.600, 0.104
718.700, 0.105
718.800, 0.104
718.900, 0.097
719.000, 0.108
719.100, 0.090
719.200, 0.087
719.300, 0.089
719.400, 0.088
719.500, 0.092
719.600, 0.097
719.700, 0.092
719.800, 0.094
719.900, 0.104
720.000, 0.104
720.100, 0.095
720.200, 0.102
720.300, 0.108
720.400, 0.099
720.500, 0.105
720.600, 0.107
720.700, 0.098
720.800, 0.110
720.900, 0.100
721.000, 0.108
721.100, 0.105
721.200, 0.110
721.300, 0.101
721.400, 0.111
721.500, 0.105
721.600, 0.104
721.700, 0.110
721.800, 0.107
721.900, 0.107
722.000, 0.115
722.100, 0.113
722.200, 0.114
722.300, 0.112
722.400, 0.102
722.500, 0.100
722.600, 0.115
722.700, 0.114
722.800, 0.111
722.900, 0.112
723.000, 0.116
723.100, 0.114
723.200, 0.110
723.300, 0.112
723.400, 0.111
723.500, 0.102
723.600, 0.097
723.700, 0.108
723.800, 0.100
723.900, 0.102
724.000, 0.111
724.100, 0.104
724.200, 0.112
724.300, 0.114
724.400, 0.117
724.500, 0.114
724.600, 0.110
724.700, 0.105
724.800, 0.096
724.900, 0.099
725.000, 0.112
725.100, 0.113
725.200, 0.110
725.300, 0.111
725.400, 0.117
725.500, 0.119
725.600, 0.110
725.700, 0.109
725.800, 0.110
725.900, 0.109
726.000, 0.111
726.100, 0.122
726.200, 0.116
726.300, 0.118
726.400, 0.117
726.500, 0.123
726.600, 0.115
726.700, 0.118
726.800, 0.125
726.900, 0.123
727.000, 0.125
727.100, 0.132
727.200, 0.131
727.300, 0.124
727.400, 0.122
727.500, 0.122
727.600, 0.120
727.700, 0.126
727.800, 0.127
727.900, 0.123
728.000, 0.125
728.100, 0.123
728.200, 0.110
728.300, 0.121
728.400, 0.120
728.500, 0.120
728.600, 0.118
728.700, 0.112
728.800, 0.111
728.900, 0.105
729.000, 0.103
729.100, 0.104
729.200, 0.107
729.300, 0.110
729.400, 0.098
729.500, 0.109
729.600, 0.103
729.700, 0.108
729.800, 0.112
729.900, 0.102
730.000, 0.113
730.100, 0.108
730.200, 0.111
730.300, 0.118
730.400, 0.110
730.500, 0.110
730.600, 0.117
730.700, 0.114
730.800, 0.115
730.900, 0.112
731.000, 0.121
731.100, 0.119
731.200, 0.102
731.300, 0.115
731.400, 0.114
731.500, 0.115
731.600, 0.135
731.700, 0.126
731.800, 0.119
731.900, 0.105
732.000, 0.113
732.100, 0.112
732.200, 0.111
732.300, 0.113
732.400, 0.116
732.500, 0.126
732.600, 0.116
732.700, 0.114
732.800, 0.111
732.900, 0.110
733.000, 0.124
733.100, 0.122
733.200, 0.125
733.300, 0.119
733.400, 0.109
733.500, 0.113
733.600, 0.111
733.700, 0.112
733.800, 0.119
733.900, 0.111
734.000, 0.108
734.100, 0.107
734.200, 0.109
734.300, 0.107
734.400, 0.101
734.500, 0.102
734.600, 0.111
734.700, 0.106
734.800, 0.105
734.900, 0.110
735.000, 0.108
735.100, 0.101
735.200, 0.107
735.300, 0.109
735.400, 0.114
735.500, 0.114
735.600, 0.107
735.700, 0.115
735.800, 0.113
735.900, 0.116
736.000, 0.105
736.100, 0.113
736.200, 0.113
736.300, 0.108
736.400, 0.122
736.500, 0.113
736.600, 0.118
736.700, 0.104
736.800, 0.101
736.900, 0.106
737.000, 0.108
737.100, 0.104
737.200, 0.111
737.300, 0.101
737.400, 0.099
737.500, 0.109
737.600, 0.101
737.700, 0.104
737.800, 0.110
737.900, 0.102
738.000, 0.102
738.100, 0.104
738.200, 0.101
738.300, 0.107
738.400, 0.109
738.500, 0.106
738.600, 0.113
738.700, 0.106
738.800, 0.101
738.900, 0.104
739.000, 0.097
739.100, 0.104
739.200, 0.107
739.300, 0.106
739.400, 0.109
739.500, 0.110
739.600, 0.104
739.700, 0.106
739.800, 0.107
739.900, 0.106
740.000, 0.104
740.100, 0.102
740.200, 0.100
740.300, 0.107
740.400, 0.107
740.500, 0.109
740.600, 0.104
740.700, 0.111
740.800, 0.118
740.900, 0.115
741.000, 0.112
741.100, 0.121
741.200, 0.109
741.300, 0.110
741.400, 0.106
741.500, 0.109
741.600, 0.105
741.700, 0.112
741.800, 0.114
741.900, 0.110
742.000, 0.118
742.100, 0.114
742.200, 0.110
742.300, 0.116
742.400, 0.105
742.500, 0.108
742.600, 0.118
742.700, 0.114
742.800, 0.116
742.900, 0.106
743.000, 0.112
743.100, 0.109
743.200, 0.105
743.300, 0.101
743.400, 0.103
743.500, 0.110
743.600, 0.105
743.700, 0.109
743.800, 0.109
743.900, 0.111
744.000, 0.122
744.100, 0.124
744.200, 0.119
744.300, 0.102
744.400, 0.108
744.500, 0.110
744.600, 0.104
744.700, 0.101
744.800, 0.105
744.900, 0.105
745.000, 0.108
745.100, 0.100
745.200, 0.102
745.300, 0.105
745.400, 0.102
745.500, 0.105
745.600, 0.097
745.700, 0.112
745.800, 0.114
745.900, 0.119
746.000, 0.116
746.100, 0.114
746.200, 0.106
746.300, 0.104
746.400, 0.098
746.500, 0.111
746.600, 0.115
746.700, 0.115
746.800, 0.118
746.900, 0.102
747.000, 0.116
747.100, 0.110
747.200, 0.116
747.300, 0.124
747.400, 0.110
747.500, 0.117
747.600, 0.110
747.700, 0.108
747.800, 0.110
747.900, 0.104
748.000, 0.113
748.100, 0.109
748.200, 0.105
748.300, 0.112
748.400, 0.119
748.500, 0.116
748.600, 0.134
748.700, 0.120
748.800, 0.129
748.900, 0.130
749.000, 0.120
749.100, 0.114
749.200, 0.118
749.300, 0.116
749.400, 0.105
749.500, 0.121
749.600, 0.113
749.700, 0.105
749.800, 0.113
749.900, 0.117
750.000, 0.129
750.100, 0.119
750.200, 0.111
750.300, 0.117
750.400, 0.112
750.500, 0.122
750.600, 0.120
750.700, 0.124
750.800, 0.126
750.900, 0.128
751.000, 0.122
751.100, 0.125
751.200, 0.125
751.300, 0.129
751.400, 0.126
751.500, 0.115
751.600, 0.116
751.700, 0.110
751.800, 0.113
751.900, 0.124
752.000, 0.114
752.100, 0.121
752.200, 0.121
752.300, 0.121
752.400, 0.117
752.500, 0.128
752.600, 0.120
752.700, 0.131
752.800, 0.121
752.900, 0.134
753.000, 0.124
753.100, 0.125
753.200, 0.123
753.300, 0.130
753.400, 0.129
753.500, 0.127
753.600, 0.110
753.700, 0.121
753.800, 0.127
753.900, 0.121
754.000, 0.134
754.100, 0.127
754.200, 0.115
754.300, 0.110
754.400, 0.120
754.500, 0.118
754.600, 0.129
754.700, 0.110
754.800, 0.118
754.900, 0.117
755.000, 0.117
755.100, 0.113
755.200, 0.113
755.300, 0.111
755.400, 0.123
755.500, 0.107
755.600, 0.106
755.700, 0.109
755.800, 0.115
755.900, 0.114
756.000, 0.112
756.100, 0.117
756.200, 0.123
756.300, 0.108
756.400, 0.121
756.500, 0.095
756.600, 0.102
756.700, 0.105
756.800, 0.108
756.900, 0.107
757.000, 0.097
757.100, 0.106
757.200, 0.104
757.300, 0.105
757.400, 0.105
757.500, 0.123
757.600, 0.117
757.700, 0.112
757.800, 0.117
757.900, 0.112
758.000, 0.121
758.100, 0.124
758.200, 0.114
758.300, 0.118
758.400, 0.115
758.500, 0.114
758.600, 0.117
758.700, 0.105
758.800, 0.107
758.900, 0.119
759.000, 0.119
759.100, 0.113
759.200, 0.114
759.300, 0.110
759.400, 0.104
759.500, 0.118
759.600, 0.113
759.700, 0.108
759.800, 0.113
759.900, 0.105
760.000, 0.112
760.100, 0.116
760.200, 0.120
760.300, 0.111
760.400, 0.111
760.500, 0.117
760.600, 0.115
760.700, 0.122
760.800, 0.119
760.900, 0.123
761.000, 0.127
761.100, 0.134
761.200, 0.123
761.300, 0.122
761.400, 0.119
761.500, 0.126
761.600, 0.121
761.700, 0.107
761.800, 0.110
761.900, 0.119
762.000, 0.129
762.100, 0.122
762.200, 0.126
762.300, 0.127
762.400, 0.117
762.500, 0.124
762.600, 0.122
762.700, 0.119
762.800, 0.118
762.900, 0.118
763.000, 0.125
763.100, 0.114
763.200, 0.116
763.300, 0.115
763.400, 0.116
763.500, 0.127
763.600, 0.119
763.700, 0.107
763.800, 0.112
763.900, 0.101
764.000, 0.111
764.100, 0.122
764.200, 0.112
764.300, 0.127
764.400, 0.127
764.500, 0.132
764.600, 0.107
764.700, 0.115
764.800, 0.124
764.900, 0.122
765.000, 0.124
765.100, 0.118
765.200, 0.123
765.300, 0.114
765.400, 0.117
765.500, 0.123
765.600, 0.139
765.700, 0.137
765.800, 0.123
765.900, 0.132
766.000, 0.131
766.100, 0.135
766.200, 0.120
766.300, 0.116
766.400, 0.108
766.500, 0.117
766.600, 0.125
766.700, 0.118
766.800, 0.114
766.900, 0.126
767.000, 0.124
767.100, 0.124
767.200, 0.124
767.300, 0.117
767.400, 0.138
767.500, 0.123
767.600, 0.121
767.700, 0.121
767.800, 0.141
767.900, 0.132
768.000, 0.126
768.100, 0.124
768.200, 0.127
768.300, 0.127
768.400, 0.116
768.500, 0.116
768.600, 0.118
768.700, 0.120
768.800, 0.113
768.900, 0.115
769.000, 0.108
769.100, 0.101
769.200, 0.116
769.300, 0.118
769.400, 0.121
769.500, 0.129
769.600, 0.141
769.700, 0.122
769.800, 0.125
769.900, 0.121
770.000, 0.111
770.100, 0.111
770.200, 0.124
770.300, 0.130
770.400, 0.129
770.500, 0.112
770.600, 0.131
770.700, 0.126
770.800, 0.121
770.900, 0.129
771.000, 0.116
771.100, 0.119
771.200, 0.114
771.300, 0.124
771.400, 0.115
771.500, 0.122
771.600, 0.123
771.700, 0.128
771.800, 0.122
771.900, 0.120
772.000, 0.117
772.100, 0.115
772.200, 0.120
772.300, 0.121
772.400, 0.123
772.500, 0.123
772.600, 0.114
772.700, 0.126
772.800, 0.118
772.900, 0.120
773.000, 0.122
773.100, 0.126
773.200, 0.135
773.300, 0.124
773.400, 0.143
773.500, 0.133
773.600, 0.129
773.700, 0.124
773.800, 0.119
773.900, 0.113
774.000, 0.115
774.100, 0.114
774.200, 0.124
774.300, 0.118
774.400, 0.130
774.500, 0.125
774.600, 0.118
774.700, 0.118
774.800, 0.123
774.900, 0.119
775.000, 0.121
775.100, 0.118
775.200, 0.114
775.300, 0.119
775.400, 0.110
775.500, 0.112
775.600, 0.114
775.700, 0.111
775.800, 0.111
775.900, 0.116
776.000, 0.109
776.100, 0.115
776.200, 0.119
776.300, 0.111
776.400, 0.121
776.500, 0.118
776.600, 0.123
776.700, 0.127
776.800, 0.121
776.900, 0.126
777.000, 0.111
777.100, 0.111
777.200, 0.119
777.300, 0.128
777.400, 0.125
777.500, 0.123
777.600, 0.124
777.700, 0.120
777.800, 0.125
777.900, 0.128
778.000, 0.139
778.100, 0.125
778.200, 0.125
778.300, 0.125
778.400, 0.134
778.500, 0.140
778.600, 0.128
778.700, 0.133
778.800, 0.120
778.900, 0.127
779.000, 0.143
779.100, 0.130
779.200, 0.144
779.300, 0.147
779.400, 0.151
779.500, 0.152
779.600, 0.165
779.700, 0.161
779.800, 0.140
779.900, 0.143
780.000, 0.130
780.100, 0.125
780.200, 0.130
780.300, 0.121
780.400, 0.115
780.500, 0.117
780.600, 0.120
780.700, 0.124
780.800, 0.120
780.900, 0.122
781.000, 0.102
781.100, 0.118
781.200, 0.109
781.300, 0.120
781.400, 0.120
781.500, 0.124
781.600, 0.141
781.700, 0.123
781.800, 0.119
781.900, 0.131
782.000, 0.137
782.100, 0.138
782.200, 0.122
782.300, 0.124
782.400, 0.130
782.500, 0.140
782.600, 0.140
782.700, 0.133
782.800, 0.129
782.900, 0.121
783.000, 0.113
783.100, 0.128
783.200, 0.120
783.300, 0.117
783.400, 0.127
783.500, 0.127
783.600, 0.122
783.700, 0.125
783.800, 0.111
783.900, 0.116
784.000, 0.118
784.100, 0.114
784.200, 0.127
784.300, 0.118
784.400, 0.113
784.500, 0.113
784.600, 0.117
784.700, 0.122
784.800, 0.104
784.900, 0.103
785.000, 0.104
785.100, 0.106
785.200, 0.107
785.300, 0.105
785.400, 0.117
785.500, 0.113
785.600, 0.120
785.700, 0.117
785.800, 0.115
785.900, 0.112
786.000, 0.123
786.100, 0.119
786.200, 0.114
786.300, 0.124
786.400, 0.109
786.500, 0.104
786.600, 0.120
786.700, 0.124
786.800, 0.120
786.900, 0.121
787.000, 0.127
787.100, 0.121
787.200, 0.119
787.300, 0.116
787.400, 0.128
787.500, 0.110
787.600, 0.113
787.700, 0.118
787.800, 0.115
787.900, 0.109
788.000, 0.111
788.100, 0.122
788.200, 0.107
788.300, 0.121
788.400, 0.116
788.500, 0.111
788.600, 0.127
788.700, 0.122
788.800, 0.115
788.900, 0.115
789.000, 0.122
789.100, 0.114
789.200, 0.125
789.300, 0.115
789.400, 0.118
789.500, 0.121
789.600, 0.117
789.700, 0.104
789.800, 0.107
789.900, 0.105
790.000, 0.116
790.100, 0.119
790.200, 0.113
790.300, 0.115
790.400, 0.123
790.500, 0.115
790.600, 0.117
790.700, 0.113
790.800, 0.119
790.900, 0.109
791.000, 0.119
791.100, 0.127
791.200, 0.123
791.300, 0.115
791.400, 0.110
791.500, 0.113
791.600, 0.109
791.700, 0.121
791.800, 0.111
791.900, 0.112
792.000, 0.109
792.100, 0.114
792.200, 0.115
792.300, 0.113
792.400, 0.120
792.500, 0.108
792.600, 0.103
792.700, 0.105
792.800, 0.108
792.900, 0.125
793.000, 0.123
793.100, 0.116
793.200, 0.121
793.300, 0.114
793.400, 0.105
793.500, 0.111
793.600, 0.111
793.700, 0.114
793.800, 0.114
793.900, 0.112
794.000, 0.113
794.100, 0.119
794.200, 0.122
794.300, 0.118
794.400, 0.111
794.500, 0.119
794.600, 0.115
794.700, 0.118
794.800, 0.115
794.900, 0.106
795.000, 0.102
795.100, 0.099
795.200, 0.104
795.300, 0.110
795.400, 0.119
795.500, 0.115
795.600, 0.114
795.700, 0.109
795.800, 0.107
795.900, 0.104
796.000, 0.107
796.100, 0.112
796.200, 0.101
796.300, 0.102
796.400, 0.100
796.500, 0.104
796.600, 0.108
796.700, 0.110
796.800, 0.105
796.900, 0.114
797.000, 0.105
797.100, 0.111
797.200, 0.107
797.300, 0.110
797.400, 0.109
797.500, 0.115
797.600, 0.117
797.700, 0.118
797.800, 0.118
797.900, 0.112
798.000, 0.114
798.100, 0.113
798.200, 0.118
798.300, 0.123
798.400, 0.104
798.500, 0.115
798.600, 0.118
798.700, 0.122
798.800, 0.106
798.900, 0.110
799.000, 0.119
799.100, 0.106
799.200, 0.106
799.300, 0.105
799.400, 0.106
799.500, 0.111
799.600, 0.114
799.700, 0.107
799.800, 0.099
799.900, 0.108
800.000, 0.101
800.100, 0.120
800.200, 0.112
800.300, 0.116
800.400, 0.109
800.500, 0.110
800.600, 0.107
800.700, 0.122
800.800, 0.117
800.900, 0.114
801.000, 0.113
801.100, 0.120
801.200, 0.114
801.300, 0.115
801.400, 0.121
801.500, 0.111
801.600, 0.111
801.700, 0.117
801.800, 0.124
801.900, 0.119
802.000, 0.120
802.100, 0.121
802.200, 0.115
802.300, 0.123
802.400, 0.115
802.500, 0.117
802.600, 0.112
802.700, 0.117
802.800, 0.106
802.900, 0.111
803.000, 0.106
803.100, 0.113
803.200, 0.107
803.300, 0.106
803.400, 0.106
803.500, 0.105
803.600, 0.103
803.700, 0.099
803.800, 0.102
803.900, 0.110
804.000, 0.109
804.100, 0.108
804.200, 0.114
804.300, 0.119
804.400, 0.114
804.500, 0.117
804.600, 0.125
804.700, 0.120
804.800, 0.104
804.900, 0.108
805.000, 0.118
805.100, 0.113
805.200, 0.115
805.300, 0.117
805.400, 0.118
805.500, 0.108
805.600, 0.117
805.700, 0.111
805.800, 0.118
805.900, 0.112
806.000, 0.113
806.100, 0.114
806.200, 0.122
806.300, 0.120
806.400, 0.114
806.500, 0.116
806.600, 0.110
806.700, 0.121
806.800, 0.127
806.900, 0.126
807.000, 0.124
807.100, 0.118
807.200, 0.114
807.300, 0.123
807.400, 0.130
807.500, 0.122
807.600, 0.116
807.700, 0.131
807.800, 0.122
807.900, 0.126
808.000, 0.128
808.100, 0.124
808.200, 0.120
808.300, 0.112
808.400, 0.125
808.500, 0.112
808.600, 0.107
808.700, 0.118
808.800, 0.124
808.900, 0.127
809.000, 0.120
809.100, 0.121
809.200, 0.115
809.300, 0.114
809.400, 0.117
809.500, 0.118
809.600, 0.118
809.700, 0.109
809.800, 0.114
809.900, 0.115
810.000, 0.108
810.100, 0.115
810.200, 0.122
810.300, 0.113
810.400, 0.121
810.500, 0.118
810.600, 0.123
810.700, 0.113
810.800, 0.120
810.900, 0.126
811.000, 0.116
811.100, 0.118
811.200, 0.118
811.300, 0.130
811.400, 0.118
811.500, 0.118
811.600, 0.109
811.700, 0.102
811.800, 0.108
811.900, 0.118
812.000, 0.115
812.100, 0.123
812.200, 0.117
812.300, 0.114
812.400, 0.108
812.500, 0.125
812.600, 0.119
812.700, 0.115
812.800, 0.126
812.900, 0.114
813.000, 0.119
813.100, 0.124
813.200, 0.131
813.300, 0.124
813.400, 0.120
813.500, 0.121
813.600, 0.124
813.700, 0.112
813.800, 0.117
813.900, 0.116
814.000, 0.120
814.100, 0.119
814.200, 0.120
814.300, 0.116
814.400, 0.121
814.500, 0.123
814.600, 0.120
814.700, 0.117
814.800, 0.117
814.900, 0.120
815.000, 0.112
815.100, 0.110
815.200, 0.103
815.300, 0.107
815.400, 0.111
815.500, 0.102
815.600, 0.112
815.700, 0.119
815.800, 0.113
815.900, 0.110
816.000, 0.102
816.100, 0.112
816.200, 0.107
816.300, 0.111
816.400, 0.108
816.500, 0.116
816.600, 0.115
816.700, 0.104
816.800, 0.106
816.900, 0.106
817.000, 0.114
817.100, 0.107
817.200, 0.114
817.300, 0.118
817.400, 0.117
817.500, 0.126
817.600, 0.127
817.700, 0.119
817.800, 0.112
817.900, 0.119
818.000, 0.111
818.100, 0.112
818.200, 0.103
818.300, 0.111
818.400, 0.105
818.500, 0.110
818.600, 0.105
818.700, 0.112
818.800, 0.110
818.900, 0.109
819.000, 0.109
819.100, 0.111
819.200, 0.111
819.300, 0.114
819.400, 0.107
819.500, 0.113
819.600, 0.107
819.700, 0.108
819.800, 0.115
819.900, 0.115
820.000, 0.112
820.100, 0.104
820.200, 0.113
820.300, 0.107
820.400, 0.107
820.500, 0.106
820.600, 0.101
820.700, 0.104
820.800, 0.099
820.900, 0.112
821.000, 0.102
821.100, 0.113
821.200, 0.103
821.300, 0.101
821.400, 0.100
821.500, 0.097
821.600, 0.108
821.700, 0.109
821.800, 0.111
821.900, 0.102
822.000, 0.102
822.100, 0.104
822.200, 0.111
822.300, 0.106
822.400, 0.105
822.500, 0.110
822.600, 0.107
822.700, 0.108
822.800, 0.109
822.900, 0.118
823.000, 0.118
823.100, 0.100
823.200, 0.106
823.300, 0.111
823.400, 0.106
823.500, 0.104
823.600, 0.101
823.700, 0.103
823.800, 0.106
823.900, 0.105
824.000, 0.108
824.100, 0.110
824.200, 0.110
824.300, 0.110
824.400, 0.107
824.500, 0.104
824.600, 0.103
824.700, 0.113
824.800, 0.106
824.900, 0.119
825.000, 0.123
825.100, 0.125
825.200, 0.116
825.300, 0.110
825.400, 0.113
825.500, 0.107
825.600, 0.111
825.700, 0.118
825.800, 0.113
825.900, 0.123
826.000, 0.122
826.100, 0.117
826.200, 0.106
826.300, 0.118
826.400, 0.115
826.500, 0.120
826.600, 0.130
826.700, 0.121
826.800, 0.120
826.900, 0.124
827.000, 0.127
827.100, 0.118
827.200, 0.123
827.300, 0.124
827.400, 0.116
827.500, 0.121
827.600, 0.122
827.700, 0.123
827.800, 0.116
827.900, 0.113
828.000, 0.116
828.100, 0.111
828.200, 0.118
828.300, 0.119
828.400, 0.111
828.500, 0.118
828.600, 0.108
828.700, 0.121
828.800, 0.114
828.900, 0.119
829.000, 0.108
829.100, 0.114
829.200, 0.114
829.300, 0.114
829.400, 0.117
829.500, 0.112
829.600, 0.117
829.700, 0.115
829.800, 0.114
829.900, 0.112
830.000, 0.109
830.100, 0.118
830.200, 0.122
830.300, 0.116
830.400, 0.115
830.500, 0.121
830.600, 0.119
830.700, 0.116
830.800, 0.123
830.900, 0.121
831.000, 0.114
831.100, 0.125
831.200, 0.116
831.300, 0.117
831.400, 0.116
831.500, 0.121
831.600, 0.123
831.700, 0.117
831.800, 0.119
831.900, 0.110
832.000, 0.112
832.100, 0.118
832.200, 0.114
832.300, 0.116
832.400, 0.114
832.500, 0.124
832.600, 0.114
832.700, 0.111
832.800, 0.113
832.900, 0.116
833.000, 0.112
833.100, 0.116
833.200, 0.108
833.300, 0.114
833.400, 0.106
833.500, 0.110
833.600, 0.113
833.700, 0.115
833.800, 0.120
833.900, 0.113
834.000, 0.101
834.100, 0.124
834.200, 0.113
834.300, 0.109
834.400, 0.117
834.500, 0.114
834.600, 0.107
834.700, 0.108
834.800, 0.108
834.900, 0.110
835.000, 0.114
835.100, 0.116
835.200, 0.108
835.300, 0.116
835.400, 0.106
835.500, 0.106
835.600, 0.107
835.700, 0.106
835.800, 0.114
835.900, 0.114
836.000, 0.114
836.100, 0.125
836.200, 0.131
836.300, 0.114
836.400, 0.126
836.500, 0.127
836.600, 0.125
836.700, 0.127
836.800, 0.121
836.900, 0.123
837.000, 0.118
837.100, 0.111
837.200, 0.121
837.300, 0.110
837.400, 0.112
837.500, 0.117
837.600, 0.116
837.700, 0.117
837.800, 0.118
837.900, 0.122
838.000, 0.116
838.100, 0.113
838.200, 0.122
838.300, 0.114
838.400, 0.121
838.500, 0.117
838.600, 0.114
838.700, 0.117
838.800, 0.115
838.900, 0.118
839.000, 0.113
839.100, 0.114
839.200, 0.119
839.300, 0.117
839.400, 0.117
839.500, 0.128
839.600, 0.109
839.700, 0.117
839.800, 0.112
839.900, 0.124
840.000, 0.116
840.100, 0.114
840.200, 0.122
840.300, 0.118
840.400, 0.117
840.500, 0.118
840.600, 0.111
840.700, 0.113
840.800, 0.119
840.900, 0.118
841.000, 0.118
841.100, 0.115
841.200, 0.113
841.300, 0.106
841.400, 0.099
841.500, 0.111
841.600, 0.114
841.700, 0.108
841.800, 0.107
841.900, 0.119
842.000, 0.114
842.100, 0.107
842.200, 0.108
842.300, 0.117
842.400, 0.116
842.500, 0.113
842.600, 0.116
842.700, 0.117
842.800, 0.118
842.900, 0.117
843.000, 0.119
843.100, 0.114
843.200, 0.121
843.300, 0.111
843.400, 0.123
843.500, 0.127
843.600, 0.118
843.700, 0.122
843.800, 0.138
843.900, 0.120
844.000, 0.126
844.100, 0.127
844.200, 0.127
844.300, 0.115
844.400, 0.114
844.500, 0.109
844.600, 0.112
844.700, 0.120
844.800, 0.108
844.900, 0.113
845.000, 0.123
845.100, 0.118
845.200, 0.135
845.300, 0.125
845.400, 0.125
845.500, 0.114
845.600, 0.120
845.700, 0.125
845.800, 0.118
845.900, 0.121
846.000, 0.119
846.100, 0.119
846.200, 0.124
846.300, 0.125
846.400, 0.121
846.500, 0.122
846.600, 0.114
846.700, 0.111
846.800, 0.116
846.900, 0.111
847.000, 0.106
847.100, 0.116
847.200, 0.107
847.300, 0.110
847.400, 0.119
847.500, 0.119
847.600, 0.119
847.700, 0.118
847.800, 0.121
847.900, 0.119
848.000, 0.126
848.100, 0.125
848.200, 0.117
848.300, 0.116
848.400, 0.119
848.500, 0.116
848.600, 0.133
848.700, 0.119
848.800, 0.122
848.900, 0.121
849.000, 0.120
849.100, 0.118
849.200, 0.121
849.300, 0.125
849.400, 0.122
849.500, 0.118
849.600, 0.114
849.700, 0.119
849.800, 0.113
849.900, 0.111
850.000, 0.115
850.100, 0.116
850.200, 0.119
850.300, 0.111
850.400, 0.109
850.500, 0.112
850.600, 0.121
850.700, 0.108
850.800, 0.110
850.900, 0.109
851.000, 0.108
851.100, 0.113
851.200, 0.111
851.300, 0.122
851.400, 0.118
851.500, 0.110
851.600, 0.116
851.700, 0.115
851.800, 0.111
851.900, 0.109
852.000, 0.107
852.100, 0.113
852.200, 0.125
852.300, 0.115
852.400, 0.115
852.500, 0.118
852.600, 0.112
852.700, 0.111
852.800, 0.114
852.900, 0.115
853.000, 0.111
853.100, 0.124
853.200, 0.120
853.300, 0.120
853.400, 0.122
853.500, 0.111
853.600, 0.118
853.700, 0.122
853.800, 0.121
853.900, 0.126
854.000, 0.119
854.100, 0.110
854.200, 0.121
854.300, 0.124
854.400, 0.129
854.500, 0.122
854.600, 0.119
854.700, 0.119
854.800, 0.124
854.900, 0.123
855.000, 0.122
855.100, 0.112
855.200, 0.121
855.300, 0.113
855.400, 0.116
855.500, 0.110
855.600, 0.111
855.700, 0.115
855.800, 0.110
855.900, 0.120
856.000, 0.114
856.100, 0.113
856.200, 0.110
856.300, 0.114
856.400, 0.118
856.500, 0.124
856.600, 0.115
856.700, 0.126
856.800, 0.115
856.900, 0.118
857.000, 0.118
857.100, 0.120
857.200, 0.114
857.300, 0.120
857.400, 0.112
857.500, 0.107
857.600, 0.115
857.700, 0.110
857.800, 0.114
857.900, 0.112
858.000, 0.110
858.100, 0.116
858.200, 0.110
858.300, 0.110
858.400, 0.113
858.500, 0.115
858.600, 0.120
858.700, 0.114
858.800, 0.126
858.900, 0.119
859.000, 0.114
859.100, 0.110
859.200, 0.108
859.300, 0.104
859.400, 0.112
859.500, 0.107
859.600, 0.112
859.700, 0.111
859.800, 0.109
859.900, 0.117
860.000, 0.110
860.100, 0.108
860.200, 0.115
860.300, 0.118
860.400, 0.118
860.500, 0.118
860.600, 0.111
860.700, 0.113
860.800, 0.118
860.900, 0.113
861.000, 0.121
861.100, 0.109
861.200, 0.106
861.300, 0.117
861.400, 0.112
861.500, 0.117
861.600, 0.122
861.700, 0.124
861.800, 0.118
861.900, 0.114
862.000, 0.120
862.100, 0.125
862.200, 0.125
862.300, 0.116
862.400, 0.122
862.500, 0.128
862.600, 0.111
862.700, 0.117
862.800, 0.120
862.900, 0.121
863.000, 0.123
863.100, 0.120
863.200, 0.114
863.300, 0.120
863.400, 0.122
863.500, 0.131
863.600, 0.116
863.700, 0.129
863.800, 0.114
863.900, 0.127
864.000, 0.124
864.100, 0.124
864.200, 0.127
864.300, 0.120
864.400, 0.118
864.500, 0.131
864.600, 0.125
864.700, 0.113
864.800, 0.125
864.900, 0.118
865.000, 0.116
865.100, 0.114
865.200, 0.125
865.300, 0.118
865.400, 0.122
865.500, 0.111
865.600, 0.117
865.700, 0.113
865.800, 0.123
865.900, 0.115
866.000, 0.127
866.100, 0.128
866.200, 0.134
866.300, 0.132
866.400, 0.124
866.500, 0.122
866.600, 0.124
866.700, 0.121
866.800, 0.121
866.900, 0.119
867.000, 0.113
867.100, 0.125
867.200, 0.108
867.300, 0.109
867.400, 0.112
867.500, 0.120
867.600, 0.117
867.700, 0.122
867.800, 0.122
867.900, 0.122
868.000, 0.123
868.100, 0.121
868.200, 0.113
868.300, 0.114
868.400, 0.114
868.500, 0.114
868.600, 0.120
868.700, 0.131
868.800, 0.117
868.900, 0.128
869.000, 0.113
869.100, 0.112
869.200, 0.112
869.300, 0.105
869.400, 0.112
869.500, 0.109
869.600, 0.105
869.700, 0.111
869.800, 0.118
869.900, 0.104
870.000, 0.115
870.100, 0.111
870.200, 0.109
870.300, 0.113
870.400, 0.119
870.500, 0.120
870.600, 0.107
870.700, 0.113
870.800, 0.104
870.900, 0.117
871.000, 0.119
871.100, 0.119
871.200, 0.122
871.300, 0.131
871.400, 0.122
871.500, 0.107
871.600, 0.110
871.700, 0.115
871.800, 0.107
871.900, 0.122
872.000, 0.115
872.100, 0.108
872.200, 0.109
872.300, 0.114
872.400, 0.105
872.500, 0.106
872.600, 0.106
872.700, 0.113
872.800, 0.110
872.900, 0.121
873.000, 0.122
873.100, 0.126
873.200, 0.123
873.300, 0.114
873.400, 0.116
873.500, 0.110
873.600, 0.110
873.700, 0.107
873.800, 0.114
873.900, 0.125
874.000, 0.118
874.100, 0.109
874.200, 0.112
874.300, 0.115
874.400, 0.123
874.500, 0.119
874.600, 0.119
874.700, 0.124
874.800, 0.121
874.900, 0.120
875.000, 0.120
875.100, 0.114
875.200, 0.120
875.300, 0.121
875.400, 0.122
875.500, 0.125
875.600, 0.118
875.700, 0.125
875.800, 0.113
875.900, 0.114
876.000, 0.120
876.100, 0.115
876.200, 0.108
876.300, 0.112
876.400, 0.106
876.500, 0.110
876.600, 0.109
876.700, 0.114
876.800, 0.115
876.900, 0.117
877.000, 0.107
877.100, 0.123
877.200, 0.124
877.300, 0.119
877.400, 0.114
877.500, 0.111
877.600, 0.117
877.700, 0.109
877.800, 0.108
877.900, 0.117
878.000, 0.110
878.100, 0.111
878.200, 0.106
878.300, 0.109
878.400, 0.111
878.500, 0.115
878.600, 0.115
878.700, 0.116
878.800, 0.117
878.900, 0.111
879.000, 0.111
879.100, 0.101
879.200, 0.117
879.300, 0.105
879.400, 0.104
879.500, 0.102
879.600, 0.101
879.700, 0.106
879.800, 0.105
879.900, 0.109
880.000, 0.117
880.100, 0.110
880.200, 0.107
880.300, 0.104
880.400, 0.112
880.500, 0.108
880.600, 0.100
880.700, 0.111
880.800, 0.118
880.900, 0.110
881.000, 0.112
881.100, 0.109
881.200, 0.113
881.300, 0.120
881.400, 0.121
881.500, 0.114
881.600, 0.114
881.700, 0.109
881.800, 0.110
881.900, 0.105
882.000, 0.111
882.100, 0.112
882.200, 0.105
882.300, 0.119
882.400, 0.113
882.500, 0.125
882.600, 0.123
882.700, 0.120
882.800, 0.119
882.900, 0.120
883.000, 0.116
883.100, 0.121
883.200, 0.116
883.300, 0.115
883.400, 0.126
883.500, 0.114
883.600, 0.117
883.700, 0.120
883.800, 0.122
883.900, 0.128
884.000, 0.121
884.100, 0.127
884.200, 0.128
884.300, 0.122
884.400, 0.125
884.500, 0.120
884.600, 0.124
884.700, 0.117
884.800, 0.126
884.900, 0.123
885.000, 0.121
885.100, 0.119
885.200, 0.117
885.300, 0.126
885.400, 0.121
885.500, 0.129
885.600, 0.125
885.700, 0.123
885.800, 0.124
885.900, 0.119
886.000, 0.117
886.100, 0.119
886.200, 0.116
886.300, 0.120
886.400, 0.119
886.500, 0.116
886.600, 0.113
886.700, 0.107
886.800, 0.111
886.900, 0.110
887.000, 0.108
887.100, 0.118
887.200, 0.118
887.300, 0.117
887.400, 0.122
887.500, 0.118
887.600, 0.108
887.700, 0.112
887.800, 0.118
887.900, 0.123
888.000, 0.131
888.100, 0.122
888.200, 0.111
888.300, 0.116
888.400, 0.116
888.500, 0.114
888.600, 0.114
888.700, 0.121
888.800, 0.118
888.900, 0.130
889.000, 0.125
889.100, 0.126
889.200, 0.117
889.300, 0.129
889.400, 0.133
889.500, 0.137
889.600, 0.124
889.700, 0.123
889.800, 0.127
889.900, 0.129
890.000, 0.123
890.100, 0.112
890.200, 0.125
890.300, 0.115
890.400, 0.115
890.500, 0.108
890.600, 0.112
890.700, 0.112
890.800, 0.116
890.900, 0.115
891.000, 0.116
891.100, 0.113
891.200, 0.115
891.300, 0.113
891.400, 0.109
891.500, 0.118
891.600, 0.117
891.700, 0.118
891.800, 0.120
891.900, 0.126
892.000, 0.121
892.100, 0.124
892.200, 0.124
892.300, 0.122
892.400, 0.123
892.500, 0.123
892.600, 0.117
892.700, 0.113
892.800, 0.112
892.900, 0.119
893.000, 0.119
893.100, 0.121
893.200, 0.113
893.300, 0.120
893.400, 0.119
893.500, 0.112
893.600, 0.125
893.700, 0.128
893.800, 0.124
893.900, 0.122
894.000, 0.118
894.100, 0.125
894.200, 0.116
894.300, 0.119
894.400, 0.121
894.500, 0.122
894.600, 0.120
894.700, 0.113
894.800, 0.112
894.900, 0.124
895.000, 0.120
895.100, 0.136
895.200, 0.124
895.300, 0.125
895.400, 0.117
895.500, 0.112
895.600, 0.122
895.700, 0.129
895.800, 0.121
895.900, 0.130
896.000, 0.119
896.100, 0.128
896.200, 0.116
896.300, 0.120
896.400, 0.112
896.500, 0.122
896.600, 0.112
896.700, 0.109
896.800, 0.111
896.900, 0.127
897.000, 0.125
897.100, 0.120
897.200, 0.123
897.300, 0.124
897.400, 0.124
897.500, 0.125
897.600, 0.125
897.700, 0.117
897.800, 0.128
897.900, 0.115
898.000, 0.131
898.100, 0.114
898.200, 0.124
898.300, 0.119
898.400, 0.134
898.500, 0.119
898.600, 0.128
898.700, 0.124
898.800, 0.119
898.900, 0.128
899.000, 0.120
899.100, 0.114
899.200, 0.109
899.300, 0.117
899.400, 0.116
899.500, 0.127
899.600, 0.129
899.700, 0.134
899.800, 0.124
899.900, 0.130
900.000, 0.121
900.100, 0.127
900.200, 0.127
900.300, 0.138
900.400, 0.127
900.500, 0.124
900.600, 0.127
900.700, 0.126
900.800, 0.122
900.900, 0.113
901.000, 0.123
901.100, 0.118
901.200, 0.126
901.300, 0.109
901.400, 0.111
901.500, 0.117
901.600, 0.114
901.700, 0.113
901.800, 0.115
901.900, 0.119
902.000, 0.122
902.100, 0.113
902.200, 0.119
902.300, 0.112
902.400, 0.120
902.500, 0.118
902.600, 0.126
902.700, 0.121
902.800, 0.122
902.900, 0.116
903.000, 0.117
903.100, 0.116
903.200, 0.119
903.300, 0.124
903.400, 0.119
903.500, 0.126
903.600, 0.126
903.700, 0.128
903.800, 0.123
903.900, 0.120
904.000, 0.121
904.100, 0.114
904.200, 0.110
904.300, 0.104
904.400, 0.118
904.500, 0.117
904.600, 0.119
904.700, 0.125
904.800, 0.123
904.900, 0.116
905.000, 0.119
905.100, 0.116
905.200, 0.115
905.300, 0.123
905.400, 0.116
905.500, 0.106
905.600, 0.114
905.700, 0.114
905.800, 0.106
905.900, 0.109
906.000, 0.113
906.100, 0.117
906.200, 0.115
906.300, 0.112
906.400, 0.110
906.500, 0.112
906.600, 0.111
906.700, 0.106
906.800, 0.113
906.900, 0.114
907.000, 0.116
907.100, 0.118
907.200, 0.114
907.300, 0.112
907.400, 0.112
907.500, 0.104
907.600, 0.118
907.700, 0.120
907.800, 0.117
907.900, 0.116
908.000, 0.113
908.100, 0.117
908.200, 0.112
908.300, 0.109
908.400, 0.118
908.500, 0.123
908.600, 0.116
908.700, 0.116
908.800, 0.109
908.900, 0.113
909.000, 0.103
909.100, 0.112
909.200, 0.117
909.300, 0.114
909.400, 0.103
909.500, 0.112
909.600, 0.115
909.700, 0.100
909.800, 0.111
909.900, 0.107
910.000, 0.116
910.100, 0.112
910.200, 0.102
910.300, 0.103
910.400, 0.108
910.500, 0.102
910.600, 0.112
910.700, 0.115
910.800, 0.107
910.900, 0.104
911.000, 0.097
911.100, 0.099
911.200, 0.106
911.300, 0.110
911.400, 0.107
911.500, 0.112
911.600, 0.096
911.700, 0.112
911.800, 0.113
911.900, 0.110
912.000, 0.103
912.100, 0.111
912.200, 0.106
912.300, 0.104
912.400, 0.112
912.500, 0.115
912.600, 0.116
912.700, 0.105
912.800, 0.113
912.900, 0.109
913.000, 0.095
913.100, 0.104
913.200, 0.112
913.300, 0.112
913.400, 0.107
913.500, 0.113
913.600, 0.112
913.700, 0.115
913.800, 0.104
913.900, 0.105
914.000, 0.101
914.100, 0.113
914.200, 0.110
914.300, 0.112
914.400, 0.112
914.500, 0.114
914.600, 0.105
914.700, 0.113
914.800, 0.108
914.900, 0.105
915.000, 0.110
915.100, 0.111
915.200, 0.104
915.300, 0.111
915.400, 0.111
915.500, 0.105
915.600, 0.110
915.700, 0.106
915.800, 0.100
915.900, 0.108
916.000, 0.085
916.100, 0.092
916.200, 0.085
916.300, 0.105
916.400, 0.099
916.500, 0.112
916.600, 0.109
916.700, 0.108
916.800, 0.106
916.900, 0.115
917.000, 0.110
917.100, 0.112
917.200, 0.105
917.300, 0.104
917.400, 0.104
917.500, 0.100
917.600, 0.106
917.700, 0.109
917.800, 0.102
917.900, 0.108
918.000, 0.111
918.100, 0.108
918.200, 0.111
918.300, 0.109
918.400, 0.115
918.500, 0.100
918.600, 0.107
918.700, 0.102
918.800, 0.100
918.900, 0.100
919.000, 0.101
919.100, 0.100
919.200, 0.087
919.300, 0.085
919.400, 0.092
919.500, 0.089
919.600, 0.103
919.700, 0.107
919.800, 0.097
919.900, 0.103
920.000, 0.094
920.100, 0.099
920.200, 0.104
920.300, 0.106
920.400, 0.105
920.500, 0.115
920.600, 0.105
920.700, 0.100
920.800, 0.107
920.900, 0.109
921.000, 0.102
921.100, 0.098
921.200, 0.107
921.300, 0.100
921.400, 0.107
921.500, 0.109
921.600, 0.102
921.700, 0.104
921.800, 0.096
921.900, 0.101
922.000, 0.095
922.100, 0.095
922.200, 0.096
922.300, 0.099
922.400, 0.101
922.500, 0.105
922.600, 0.098
922.700, 0.109
922.800, 0.099
922.900, 0.108
923.000, 0.099
923.100, 0.116
923.200, 0.102
923.300, 0.105
923.400, 0.100
923.500, 0.105
923.600, 0.110
923.700, 0.105
923.800, 0.110
923.900, 0.108
924.000, 0.112
924.100, 0.108
924.200, 0.113
924.300, 0.108
924.400, 0.100
924.500, 0.108
924.600, 0.106
924.700, 0.102
924.800, 0.107
924.900, 0.102
925.000, 0.114
925.100, 0.108
925.200, 0.105
925.300, 0.105
925.400, 0.112
925.500, 0.114
925.600, 0.104
925.700, 0.116
925.800, 0.111
925.900, 0.113
926.000, 0.111
926.100, 0.105
926.200, 0.114
926.300, 0.108
926.400, 0.109
926.500, 0.122
926.600, 0.115
926.700, 0.107
926.800, 0.112
926.900, 0.109
927.000, 0.110
927.100, 0.104
927.200, 0.117
927.300, 0.115
927.400, 0.112
927.500, 0.104
927.600, 0.099
927.700, 0.104
927.800, 0.105
927.900, 0.092
928.000, 0.098
928.100, 0.101
928.200, 0.100
928.300, 0.099
928.400, 0.108
928.500, 0.093
928.600, 0.097
928.700, 0.097
928.800, 0.094
928.900, 0.111
929.000, 0.095
929.100, 0.101
929.200, 0.098
929.300, 0.104
929.400, 0.103
929.500, 0.119
929.600, 0.108
929.700, 0.106
929.800, 0.104
929.900, 0.102
930.000, 0.111
930.100, 0.107
930.200, 0.091
930.300, 0.109
930.400, 0.106
930.500, 0.101
930.600, 0.102
930.700, 0.105
930.800, 0.104
930.900, 0.107
931.000, 0.101
931.100, 0.110
931.200, 0.091
931.300, 0.096
931.400, 0.105
931.500, 0.107
931.600, 0.100
931.700, 0.100
931.800, 0.113
931.900, 0.093
932.000, 0.101
932.100, 0.101
932.200, 0.103
932.300, 0.104
932.400, 0.109
932.500, 0.102
932.600, 0.100
932.700, 0.101
932.800, 0.098
932.900, 0.101
933.000, 0.105
933.100, 0.103
933.200, 0.106
933.300, 0.098
933.400, 0.104
933.500, 0.099
933.600, 0.099
933.700, 0.101
933.800, 0.099
933.900, 0.108
934.000, 0.105
934.100, 0.104
934.200, 0.110
934.300, 0.101
934.400, 0.094
934.500, 0.089
934.600, 0.093
934.700, 0.103
934.800, 0.091
934.900, 0.101
935.000, 0.096
935.100, 0.096
935.200, 0.096
935.300, 0.099
935.400, 0.099
935.500, 0.100
935.600, 0.104
935.700, 0.090
935.800, 0.100
935.900, 0.111
936.000, 0.106
936.100, 0.095
936.200, 0.104
936.300, 0.107
936.400, 0.108
936.500, 0.100
936.600, 0.110
936.700, 0.117
936.800, 0.110
936.900, 0.113
937.000, 0.108
937.100, 0.106
937.200, 0.102
937.300, 0.099
937.400, 0.094
937.500, 0.100
937.600, 0.111
937.700, 0.109
937.800, 0.098
937.900, 0.107
938.000, 0.111
938.100, 0.093
938.200, 0.085
938.300, 0.101
938.400, 0.103
938.500, 0.092
938.600, 0.096
938.700, 0.094
938.800, 0.082
938.900, 0.085
939.000, 0.091
939.100, 0.088
939.200, 0.088
939.300, 0.090
939.400, 0.091
939.500, 0.091
939.600, 0.081
939.700, 0.094
939.800, 0.090
939.900, 0.094
940.000, 0.084
940.100, 0.092
940.200, 0.097
940.300, 0.091
940.400, 0.094
940.500, 0.089
940.600, 0.094
940.700, 0.097
940.800, 0.088
940.900, 0.095
941.000, 0.092
941.100, 0.101
941.200, 0.091
941.300, 0.093
941.400, 0.105
941.500, 0.093
941.600, 0.097
941.700, 0.098
941.800, 0.080
941.900, 0.097
942.000, 0.086
942.100, 0.091
942.200, 0.093
942.300, 0.099
942.400, 0.098
942.500, 0.102
942.600, 0.101
942.700, 0.092
942.800, 0.088
942.900, 0.090
943.000, 0.096
943.100, 0.088
943.200, 0.097
943.300, 0.091
943.400, 0.111
943.500, 0.099
943.600, 0.095
943.700, 0.097
943.800, 0.103
943.900, 0.095
944.000, 0.104
944.100, 0.100
944.200, 0.104
944.300, 0.093
944.400, 0.088
944.500, 0.090
944.600, 0.087
944.700, 0.099
944.800, 0.098
944.900, 0.105
945.000, 0.101
945.100, 0.103
945.200, 0.106
945.300, 0.091
945.400, 0.102
945.500, 0.087
945.600, 0.096
945.700, 0.095
945.800, 0.093
945.900, 0.093
946.000, 0.095
946.100, 0.094
946.200, 0.093
946.300, 0.098
946.400, 0.105
946.500, 0.116
946.600, 0.109
946.700, 0.119
946.800, 0.116
946.900, 0.108
947.000, 0.091
947.100, 0.104
947.200, 0.105
947.300, 0.093
947.400, 0.085
947.500, 0.097
947.600, 0.091
947.700, 0.102
947.800, 0.107
947.900, 0.090
948.000, 0.095
948.100, 0.104
948.200, 0.079
948.300, 0.093
948.400, 0.101
948.500, 0.095
948.600, 0.091
948.700, 0.097
948.800, 0.088
948.900, 0.091
949.000, 0.085
949.100, 0.097
949.200, 0.085
949.300, 0.096
949.400, 0.097
949.500, 0.094
949.600, 0.095
949.700, 0.099
949.800, 0.106
949.900, 0.098
950.000, 0.103
950.100, 0.097
950.200, 0.091
950.300, 0.098
950.400, 0.099
950.500, 0.103
950.600, 0.105
950.700, 0.092
950.800, 0.104
950.900, 0.100
951.000, 0.096
951.100, 0.101
951.200, 0.094
951.300, 0.099
951.400, 0.088
951.500, 0.092
951.600, 0.089
951.700, 0.106
951.800, 0.090
951.900, 0.099
952.000, 0.093
952.100, 0.083
952.200, 0.096
952.300, 0.102
952.400, 0.103
952.500, 0.097
952.600, 0.096
952.700, 0.096
952.800, 0.095
952.900, 0.096
953.000, 0.087
953.100, 0.097
953.200, 0.098
953.300, 0.103
953.400, 0.089
953.500, 0.099
953.600, 0.085
953.700, 0.083
953.800, 0.081
953.900, 0.098
954.000, 0.088
954.100, 0.083
954.200, 0.080
954.300, 0.088
954.400, 0.089
954.500, 0.082
954.600, 0.084
954.700, 0.102
954.800, 0.102
954.900, 0.092
955.000, 0.086
955.100, 0.080
955.200, 0.075
955.300, 0.073
955.400, 0.084
955.500, 0.077
955.600, 0.081
955.700, 0.076
955.800, 0.087
955.900, 0.080
956.000, 0.087
956.100, 0.092
956.200, 0.090
956.300, 0.083
956.400, 0.093
956.500, 0.088
956.600, 0.082
956.700, 0.080
956.800, 0.081
956.900, 0.087
957.000, 0.087
957.100, 0.087
957.200, 0.095
957.300, 0.092
957.400, 0.085
957.500, 0.083
957.600, 0.080
957.700, 0.100
957.800, 0.084
957.900, 0.090
958.000, 0.092
958.100, 0.082
958.200, 0.093
958.300, 0.098
958.400, 0.106
958.500, 0.098
958.600, 0.086
958.700, 0.079
958.800, 0.084
958.900, 0.077
959.000, 0.085
959.100, 0.087
959.200, 0.074
959.300, 0.066
959.400, 0.077
959.500, 0.073
959.600, 0.078
959.700, 0.070
959.800, 0.072
959.900, 0.087
960.000, 0.072
960.100, 0.073
960.200, 0.073
960.300, 0.075
960.400, 0.093
960.500, 0.090
960.600, 0.081
960.700, 0.093
960.800, 0.078
960.900, 0.093
961.000, 0.081
961.100, 0.078
961.200, 0.072
961.300, 0.074
961.400, 0.072
961.500, 0.071
961.600, 0.069
961.700, 0.079
961.800, 0.096
961.900, 0.085
962.000, 0.079
962.100, 0.098
962.200, 0.081
962.300, 0.091
962.400, 0.088
962.500, 0.093
962.600, 0.090
962.700, 0.083
962.800, 0.097
962.900, 0.085
963.000, 0.078
963.100, 0.090
963.200, 0.096
963.300, 0.093
963.400, 0.098
963.500, 0.091
963.600, 0.087
963.700, 0.094
963.800, 0.094
963.900, 0.094
964.000, 0.090
964.100, 0.096
964.200, 0.100
964.300, 0.094
964.400, 0.097
964.500, 0.089
964.600, 0.075
964.700, 0.089
964.800, 0.092
964.900, 0.094
965.000, 0.090
965.100, 0.083
965.200, 0.092
965.300, 0.081
965.400, 0.096
965.500, 0.101
965.600, 0.098
965.700, 0.087
965.800, 0.098
965.900, 0.095
966.000, 0.086
966.100, 0.087
966.200, 0.092
966.300, 0.077
966.400, 0.083
966.500, 0.070
966.600, 0.076
966.700, 0.097
966.800, 0.084
966.900, 0.080
967.000, 0.080
967.100, 0.070
967.200, 0.071
967.300, 0.082
967.400, 0.086
967.500, 0.086
967.600, 0.100
967.700, 0.087
967.800, 0.091
967.900, 0.078
968.000, 0.082
968.100, 0.074
968.200, 0.085
968.300, 0.088
968.400, 0.086
968.500, 0.079
968.600, 0.087
968.700, 0.074
968.800, 0.078
968.900, 0.079
969.000, 0.081
969.100, 0.080
969.200, 0.084
969.300, 0.082
969.400, 0.081
969.500, 0.073
969.600, 0.077
969.700, 0.095
969.800, 0.102
969.900, 0.087
970.000, 0.074
970.100, 0.081
970.200, 0.088
970.300, 0.083
970.400, 0.079
970.500, 0.080
970.600, 0.081
970.700, 0.087
970.800, 0.086
970.900, 0.079
971.000, 0.082
971.100, 0.075
971.200, 0.080
971.300, 0.077
971.400, 0.076
971.500, 0.071
971.600, 0.079
971.700, 0.065
971.800, 0.081
971.900, 0.083
972.000, 0.076
972.100, 0.082
972.200, 0.069
972.300, 0.088
972.400, 0.087
972.500, 0.090
972.600, 0.092
972.700, 0.088
972.800, 0.080
972.900, 0.099
973.000, 0.086
973.100, 0.085
973.200, 0.073
973.300, 0.098
973.400, 0.085
973.500, 0.084
973.600, 0.081
973.700, 0.070
973.800, 0.077
973.900, 0.084
974.000, 0.084
974.100, 0.085
974.200, 0.087
974.300, 0.100
974.400, 0.083
974.500, 0.094
974.600, 0.097
974.700, 0.086
974.800, 0.083
974.900, 0.092
975.000, 0.091
975.100, 0.093
975.200, 0.096
975.300, 0.083
975.400, 0.091
975.500, 0.086
975.600, 0.090
975.700, 0.085
975.800, 0.083
975.900, 0.082
976.000, 0.075
976.100, 0.077
976.200, 0.079
976.300, 0.082
976.400, 0.087
976.500, 0.091
976.600, 0.087
976.700, 0.095
976.800, 0.095
976.900, 0.088
977.000, 0.095
977.100, 0.088
977.200, 0.088
977.300, 0.096
977.400, 0.089
977.500, 0.097
977.600, 0.102
977.700, 0.092
977.800, 0.090
977.900, 0.091
978.000, 0.095
978.100, 0.103
978.200, 0.098
978.300, 0.090
978.400, 0.092
978.500, 0.097
978.600, 0.092
978.700, 0.091
978.800, 0.093
978.900, 0.102
979.000, 0.093
979.100, 0.075
979.200, 0.076
979.300, 0.071
979.400, 0.075
979.500, 0.076
979.600, 0.075
979.700, 0.073
979.800, 0.083
979.900, 0.087
980.000, 0.080
980.100, 0.082
980.200, 0.083
980.300, 0.076
980.400, 0.077
980.500, 0.074
980.600, 0.084
980.700, 0.076
980.800, 0.077
980.900, 0.103
981.000, 0.094
981.100, 0.092
981.200, 0.090
981.300, 0.092
981.400, 0.092
981.500, 0.087
981.600, 0.085
981.700, 0.083
981.800, 0.083
981.900, 0.087
982.000, 0.077
982.100, 0.090
982.200, 0.092
982.300, 0.089
982.400, 0.085
982.500, 0.084
982.600, 0.077
982.700, 0.087
982.800, 0.092
982.900, 0.092
983.000, 0.097
983.100, 0.103
983.200, 0.099
983.300, 0.110
983.400, 0.091
983.500, 0.097
983.600, 0.091
983.700, 0.084
983.800, 0.083
983.900, 0.084
984.000, 0.093
984.100, 0.079
984.200, 0.089
984.300, 0.082
984.400, 0.081
984.500, 0.085
984.600, 0.094
984.700, 0.092
984.800, 0.094
984.900, 0.089
985.000, 0.090
985.100, 0.089
985.200, 0.096
985.300, 0.081
985.400, 0.096
985.500, 0.092
985.600, 0.086
985.700, 0.080
985.800, 0.077
985.900, 0.079
986.000, 0.081
986.100, 0.080
986.200, 0.078
986.300, 0.078
986.400, 0.076
986.500, 0.081
986.600, 0.078
986.700, 0.081
986.800, 0.071
986.900, 0.076
987.000, 0.078
987.100, 0.087
987.200, 0.098
987.300, 0.080
987.400, 0.075
987.500, 0.083
987.600, 0.081
987.700, 0.084
987.800, 0.079
987.900, 0.079
988.000, 0.072
988.100, 0.079
988.200, 0.087
988.300, 0.074
988.400, 0.076
988.500, 0.080
988.600, 0.086
988.700, 0.082
988.800, 0.076
988.900, 0.080
989.000, 0.086
989.100, 0.076
989.200, 0.069
989.300, 0.080
989.400, 0.088
989.500, 0.075
989.600, 0.076
989.700, 0.074
989.800, 0.082
989.900, 0.076
990.000, 0.073
990.100, 0.075
990.200, 0.083
990.300, 0.084
990.400, 0.074
990.500, 0.084
990.600, 0.090
990.700, 0.078
990.800, 0.078
990.900, 0.077
991.000, 0.077
991.100, 0.073
991.200, 0.085
991.300, 0.076
991.400, 0.084
991.500, 0.072
991.600, 0.085
991.700, 0.096
991.800, 0.084
991.900, 0.079
992.000, 0.074
992.100, 0.087
992.200, 0.094
992.300, 0.090
992.400, 0.091
992.500, 0.083
992.600, 0.077
992.700, 0.078
992.800, 0.083
992.900, 0.095
993.000, 0.087
993.100, 0.087
993.200, 0.092
993.300, 0.083
993.400, 0.079
993.500, 0.085
993.600, 0.090
993.700, 0.085
993.800, 0.083
993.900, 0.086
994.000, 0.076
994.100, 0.075
994.200, 0.075
994.300, 0.085
994.400, 0.078
994.500, 0.078
994.600, 0.080
994.700, 0.075
994.800, 0.080
994.900, 0.080
995.000, 0.067
995.100, 0.074
995.200, 0.081
995.300, 0.078
995.400, 0.074
995.500, 0.077
995.600, 0.075
995.700, 0.092
995.800, 0.087
995.900, 0.081
996.000, 0.084
996.100, 0.073
996.200, 0.075
996.300, 0.096
996.400, 0.093
996.500, 0.094
996.600, 0.099
996.700, 0.087
996.800, 0.075
996.900, 0.077
997.000, 0.071
997.100, 0.080
997.200, 0.070
997.300, 0.077
997.400, 0.071
997.500, 0.071
997.600, 0.062
997.700, 0.063
997.800, 0.073
997.900, 0.067
998.000, 0.063
998.100, 0.075
998.200, 0.082
998.300, 0.078
998.400, 0.086
998.500, 0.092
998.600, 0.066
998.700, 0.068
998.800, 0.083
998.900, 0.076
999.000, 0.074
999.100, 0.078
999.200, 0.074
999.300, 0.086
999.400, 0.075
999.500, 0.101
999.600, 0.086
999.700, 0.063
999.800, 0.071
999.900, 0.008
1000.000, 0.001
