Time (ps), RMSD (nm)
0.000, 0.001
0.100, 0.128
0.200, 0.125
0.300, 0.120
0.400, 0.131
0.500, 0.128
0.600, 0.129
0.700, 0.117
0.800, 0.129
0.900, 0.127
1.000, 0.124
1.100, 0.122
1.200, 0.123
1.300, 0.124
1.400, 0.117
1.500, 0.120
1.600, 0.126
1.700, 0.118
1.800, 0.115
1.900, 0.116
2.000, 0.118
2.100, 0.123
2.200, 0.120
2.300, 0.122
2.400, 0.119
2.500, 0.116
2.600, 0.118
2.700, 0.114
2.800, 0.116
2.900, 0.116
3.000, 0.113
3.100, 0.119
3.200, 0.122
3.300, 0.129
3.400, 0.125
3.500, 0.121
3.600, 0.114
3.700, 0.121
3.800, 0.124
3.900, 0.118
4.000, 0.123
4.100, 0.119
4.200, 0.129
4.300, 0.125
4.400, 0.123
4.500, 0.122
4.600, 0.124
4.700, 0.123
4.800, 0.135
4.900, 0.124
5.000, 0.126
5.100, 0.126
5.200, 0.119
5.300, 0.117
5.400, 0.122
5.500, 0.122
5.600, 0.110
5.700, 0.113
5.800, 0.122
5.900, 0.110
6.000, 0.117
6.100, 0.114
6.200, 0.122
6.300, 0.119
6.400, 0.121
6.500, 0.120
6.600, 0.118
6.700, 0.119
6.800, 0.127
6.900, 0.118
7.000, 0.116
7.100, 0.111
7.200, 0.120
7.300, 0.124
7.400, 0.113
7.500, 0.107
7.600, 0.111
7.700, 0.110
7.800, 0.110
7.900, 0.116
8.000, 0.123
8.100, 0.108
8.200, 0.110
8.300, 0.109
8.400, 0.112
8.500, 0.101
8.600, 0.111
8.700, 0.112
8.800, 0.117
8.900, 0.110
9.000, 0.113
9.100, 0.114
9.200, 0.115
9.300, 0.127
9.400, 0.116
9.500, 0.111
9.600, 0.113
9.700, 0.123
9.800, 0.120
9.900, 0.117
10.000, 0.111
10.100, 0.111
10.200, 0.108
10.300, 0.106
10.400, 0.099
10.500, 0.111
10.600, 0.110
10.700, 0.109
10.800, 0.107
10.900, 0.101
11.000, 0.104
11.100, 0.105
11.200, 0.106
11.300, 0.105
11.400, 0.098
11.500, 0.097
11.600, 0.103
11.700, 0.102
11.800, 0.105
11.900, 0.100
12.000, 0.095
12.100, 0.099
12.200, 0.103
12.300, 0.094
12.400, 0.099
12.500, 0.108
12.600, 0.096
12.700, 0.096
12.800, 0.106
12.900, 0.102
13.000, 0.101
13.100, 0.102
13.200, 0.110
13.300, 0.099
13.400, 0.102
13.500, 0.104
13.600, 0.106
13.700, 0.108
13.800, 0.108
13.900, 0.113
14.000, 0.112
14.100, 0.114
14.200, 0.111
14.300, 0.104
14.400, 0.114
14.500, 0.105
14.600, 0.110
14.700, 0.106
14.800, 0.101
14.900, 0.100
15.000, 0.102
15.100, 0.111
15.200, 0.115
15.300, 0.109
15.400, 0.115
15.500, 0.119
15.600, 0.111
15.700, 0.117
15.800, 0.107
15.900, 0.108
16.000, 0.107
16.100, 0.104
16.200, 0.109
16.300, 0.109
16.400, 0.112
16.500, 0.118
16.600, 0.110
16.700, 0.109
16.800, 0.118
16.900, 0.113
17.000, 0.112
17.100, 0.114
17.200, 0.113
17.300, 0.115
17.400, 0.108
17.500, 0.112
17.600, 0.120
17.700, 0.108
17.800, 0.112
17.900, 0.117
18.000, 0.109
18.100, 0.116
18.200, 0.119
18.300, 0.115
18.400, 0.113
18.500, 0.105
18.600, 0.112
18.700, 0.107
18.800, 0.103
18.900, 0.114
19.000, 0.106
19.100, 0.108
19.200, 0.112
19.300, 0.121
19.400, 0.116
19.500, 0.108
19.600, 0.100
19.700, 0.101
19.800, 0.102
19.900, 0.110
20.000, 0.107
20.100, 0.107
20.200, 0.103
20.300, 0.108
20.400, 0.101
20.500, 0.104
20.600, 0.093
20.700, 0.106
20.800, 0.097
20.900, 0.099
21.000, 0.103
21.100, 0.095
21.200, 0.104
21.300, 0.100
21.400, 0.099
21.500, 0.097
21.600, 0.102
21.700, 0.099
21.800, 0.097
21.900, 0.093
22.000, 0.091
22.100, 0.093
22.200, 0.098
22.300, 0.095
22.400, 0.110
22.500, 0.093
22.600, 0.093
22.700, 0.101
22.800, 0.096
22.900, 0.092
23.000, 0.097
23.100, 0.091
23.200, 0.101
23.300, 0.094
23.400, 0.106
23.500, 0.096
23.600, 0.103
23.700, 0.101
23.800, 0.111
23.900, 0.113
24.000, 0.112
24.100, 0.112
24.200, 0.102
24.300, 0.095
24.400, 0.099
24.500, 0.095
24.600, 0.101
24.700, 0.106
24.800, 0.108
24.900, 0.101
25.000, 0.109
25.100, 0.103
25.200, 0.111
25.300, 0.103
25.400, 0.105
25.500, 0.103
25.600, 0.103
25.700, 0.112
25.800, 0.096
25.900, 0.100
26.000, 0.102
26.100, 0.103
26.200, 0.101
26.300, 0.095
26.400, 0.098
26.500, 0.103
26.600, 0.099
26.700, 0.112
26.800, 0.109
26.900, 0.115
27.000, 0.110
27.100, 0.109
27.200, 0.110
27.300, 0.108
27.400, 0.111
27.500, 0.110
27.600, 0.108
27.700, 0.115
27.800, 0.114
27.900, 0.112
28.000, 0.096
28.100, 0.104
28.200, 0.101
28.300, 0.110
28.400, 0.109
28.500, 0.099
28.600, 0.105
28.700, 0.106
28.800, 0.108
28.900, 0.110
29.000, 0.098
29.100, 0.098
29.200, 0.098
29.300, 0.106
29.400, 0.096
29.500, 0.100
29.600, 0.090
29.700, 0.102
29.800, 0.095
29.900, 0.095
30.000, 0.098
30.100, 0.099
30.200, 0.096
30.300, 0.102
30.400, 0.103
30.500, 0.099
30.600, 0.098
30.700, 0.100
30.800, 0.104
30.900, 0.095
31.000, 0.100
31.100, 0.097
31.200, 0.099
31.300, 0.103
31.400, 0.104
31.500, 0.098
31.600, 0.100
31.700, 0.103
31.800, 0.104
31.900, 0.103
32.000, 0.103
32.100, 0.109
32.200, 0.101
32.300, 0.106
32.400, 0.100
32.500, 0.096
32.600, 0.105
32.700, 0.096
32.800, 0.091
32.900, 0.095
33.000, 0.099
33.100, 0.105
33.200, 0.095
33.300, 0.105
33.400, 0.098
33.500, 0.099
33.600, 0.098
33.700, 0.105
33.800, 0.099
33.900, 0.100
34.000, 0.099
34.100, 0.100
34.200, 0.095
34.300, 0.095
34.400, 0.093
34.500, 0.102
34.600, 0.101
34.700, 0.100
34.800, 0.101
34.900, 0.103
35.000, 0.104
35.100, 0.102
35.200, 0.107
35.300, 0.102
35.400, 0.104
35.500, 0.096
35.600, 0.106
35.700, 0.104
35.800, 0.105
35.900, 0.105
36.000, 0.100
36.100, 0.096
36.200, 0.106
36.300, 0.103
36.400, 0.099
36.500, 0.098
36.600, 0.095
36.700, 0.102
36.800, 0.097
36.900, 0.101
37.000, 0.099
37.100, 0.093
37.200, 0.102
37.300, 0.095
37.400, 0.101
37.500, 0.100
37.600, 0.097
37.700, 0.100
37.800, 0.095
37.900, 0.094
38.000, 0.096
38.100, 0.100
38.200, 0.094
38.300, 0.100
38.400, 0.100
38.500, 0.102
38.600, 0.101
38.700, 0.102
38.800, 0.104
38.900, 0.091
39.000, 0.092
39.100, 0.095
39.200, 0.090
39.300, 0.088
39.400, 0.096
39.500, 0.097
39.600, 0.088
39.700, 0.094
39.800, 0.096
39.900, 0.095
40.000, 0.089
40.100, 0.088
40.200, 0.091
40.300, 0.089
40.400, 0.091
40.500, 0.091
40.600, 0.090
40.700, 0.100
40.800, 0.092
40.900, 0.099
41.000, 0.090
41.100, 0.099
41.200, 0.101
41.300, 0.097
41.400, 0.095
41.500, 0.094
41.600, 0.094
41.700, 0.101
41.800, 0.100
41.900, 0.104
42.000, 0.101
42.100, 0.097
42.200, 0.101
42.300, 0.096
42.400, 0.099
42.500, 0.098
42.600, 0.108
42.700, 0.106
42.800, 0.100
42.900, 0.100
43.000, 0.103
43.100, 0.099
43.200, 0.101
43.300, 0.103
43.400, 0.100
43.500, 0.096
43.600, 0.089
43.700, 0.095
43.800, 0.095
43.900, 0.103
44.000, 0.099
44.100, 0.101
44.200, 0.102
44.300, 0.099
44.400, 0.112
44.500, 0.102
44.600, 0.098
44.700, 0.096
44.800, 0.095
44.900, 0.096
45.000, 0.103
45.100, 0.094
45.200, 0.096
45.300, 0.094
45.400, 0.093
45.500, 0.097
45.600, 0.093
45.700, 0.096
45.800, 0.111
45.900, 0.101
46.000, 0.101
46.100, 0.111
46.200, 0.106
46.300, 0.101
46.400, 0.098
46.500, 0.095
46.600, 0.108
46.700, 0.107
46.800, 0.107
46.900, 0.107
47.000, 0.110
47.100, 0.098
47.200, 0.103
47.300, 0.115
47.400, 0.108
47.500, 0.110
47.600, 0.101
47.700, 0.102
47.800, 0.103
47.900, 0.101
48.000, 0.095
48.100, 0.098
48.200, 0.105
48.300, 0.104
48.400, 0.096
48.500, 0.104
48.600, 0.107
48.700, 0.094
48.800, 0.100
48.900, 0.100
49.000, 0.107
49.100, 0.105
49.200, 0.101
49.300, 0.105
49.400, 0.096
49.500, 0.105
49.600, 0.101
49.700, 0.099
49.800, 0.109
49.900, 0.113
50.000, 0.103
50.100, 0.109
50.200, 0.103
50.300, 0.099
50.400, 0.106
50.500, 0.103
50.600, 0.111
50.700, 0.098
50.800, 0.093
50.900, 0.112
51.000, 0.105
51.100, 0.109
51.200, 0.105
51.300, 0.102
51.400, 0.103
51.500, 0.107
51.600, 0.106
51.700, 0.103
51.800, 0.100
51.900, 0.095
52.000, 0.105
52.100, 0.101
52.200, 0.111
52.300, 0.107
52.400, 0.109
52.500, 0.109
52.600, 0.114
52.700, 0.103
52.800, 0.102
52.900, 0.103
53.000, 0.096
53.100, 0.099
53.200, 0.100
53.300, 0.105
53.400, 0.106
53.500, 0.100
53.600, 0.097
53.700, 0.097
53.800, 0.101
53.900, 0.099
54.000, 0.101
54.100, 0.103
54.200, 0.106
54.300, 0.105
54.400, 0.110
54.500, 0.100
54.600, 0.109
54.700, 0.099
54.800, 0.104
54.900, 0.110
55.000, 0.101
55.100, 0.113
55.200, 0.105
55.300, 0.101
55.400, 0.105
55.500, 0.106
55.600, 0.112
55.700, 0.110
55.800, 0.104
55.900, 0.102
56.000, 0.116
56.100, 0.112
56.200, 0.110
56.300, 0.115
56.400, 0.112
56.500, 0.116
56.600, 0.113
56.700, 0.119
56.800, 0.115
56.900, 0.112
57.000, 0.098
57.100, 0.107
57.200, 0.104
57.300, 0.101
57.400, 0.104
57.500, 0.101
57.600, 0.115
57.700, 0.102
57.800, 0.103
57.900, 0.102
58.000, 0.121
58.100, 0.115
58.200, 0.107
58.300, 0.110
58.400, 0.109
58.500, 0.105
58.600, 0.107
58.700, 0.098
58.800, 0.104
58.900, 0.107
59.000, 0.114
59.100, 0.098
59.200, 0.102
59.300, 0.122
59.400, 0.111
59.500, 0.112
59.600, 0.109
59.700, 0.111
59.800, 0.118
59.900, 0.118
60.000, 0.113
60.100, 0.116
60.200, 0.106
60.300, 0.105
60.400, 0.109
60.500, 0.104
60.600, 0.111
60.700, 0.104
60.800, 0.112
60.900, 0.110
61.000, 0.112
61.100, 0.128
61.200, 0.119
61.300, 0.113
61.400, 0.116
61.500, 0.111
61.600, 0.114
61.700, 0.122
61.800, 0.106
61.900, 0.110
62.000, 0.113
62.100, 0.110
62.200, 0.111
62.300, 0.110
62.400, 0.118
62.500, 0.110
62.600, 0.112
62.700, 0.112
62.800, 0.106
62.900, 0.108
63.000, 0.110
63.100, 0.108
63.200, 0.105
63.300, 0.124
63.400, 0.110
63.500, 0.105
63.600, 0.107
63.700, 0.109
63.800, 0.115
63.900, 0.120
64.000, 0.120
64.100, 0.121
64.200, 0.124
64.300, 0.113
64.400, 0.110
64.500, 0.105
64.600, 0.118
64.700, 0.119
64.800, 0.119
64.900, 0.114
65.000, 0.112
65.100, 0.116
65.200, 0.118
65.300, 0.118
65.400, 0.112
65.500, 0.119
65.600, 0.115
65.700, 0.110
65.800, 0.122
65.900, 0.117
66.000, 0.114
66.100, 0.114
66.200, 0.105
66.300, 0.109
66.400, 0.108
66.500, 0.109
66.600, 0.118
66.700, 0.107
66.800, 0.122
66.900, 0.101
67.000, 0.105
67.100, 0.100
67.200, 0.098
67.300, 0.098
67.400, 0.099
67.500, 0.104
67.600, 0.111
67.700, 0.114
67.800, 0.109
67.900, 0.117
68.000, 0.114
68.100, 0.108
68.200, 0.110
68.300, 0.107
68.400, 0.110
68.500, 0.104
68.600, 0.108
68.700, 0.117
68.800, 0.107
68.900, 0.106
69.000, 0.103
69.100, 0.105
69.200, 0.103
69.300, 0.108
69.400, 0.105
69.500, 0.110
69.600, 0.107
69.700, 0.110
69.800, 0.103
69.900, 0.109
70.000, 0.097
70.100, 0.105
70.200, 0.099
70.300, 0.102
70.400, 0.110
70.500, 0.105
70.600, 0.109
70.700, 0.103
70.800, 0.108
70.900, 0.102
71.000, 0.110
71.100, 0.106
71.200, 0.110
71.300, 0.103
71.400, 0.116
71.500, 0.106
71.600, 0.108
71.700, 0.112
71.800, 0.106
71.900, 0.110
72.000, 0.116
72.100, 0.109
72.200, 0.107
72.300, 0.109
72.400, 0.113
72.500, 0.110
72.600, 0.119
72.700, 0.108
72.800, 0.115
72.900, 0.116
73.000, 0.114
73.100, 0.115
73.200, 0.109
73.300, 0.105
73.400, 0.102
73.500, 0.104
73.600, 0.104
73.700, 0.102
73.800, 0.099
73.900, 0.096
74.000, 0.102
74.100, 0.103
74.200, 0.100
74.300, 0.096
74.400, 0.107
74.500, 0.102
74.600, 0.107
74.700, 0.103
74.800, 0.117
74.900, 0.109
75.000, 0.109
75.100, 0.111
75.200, 0.097
75.300, 0.108
75.400, 0.097
75.500, 0.111
75.600, 0.118
75.700, 0.120
75.800, 0.112
75.900, 0.107
76.000, 0.105
76.100, 0.103
76.200, 0.098
76.300, 0.099
76.400, 0.106
76.500, 0.108
76.600, 0.102
76.700, 0.102
76.800, 0.105
76.900, 0.099
77.000, 0.103
77.100, 0.102
77.200, 0.106
77.300, 0.109
77.400, 0.108
77.500, 0.104
77.600, 0.092
77.700, 0.095
77.800, 0.107
77.900, 0.102
78.000, 0.102
78.100, 0.106
78.200, 0.107
78.300, 0.106
78.400, 0.107
78.500, 0.104
78.600, 0.106
78.700, 0.107
78.800, 0.102
78.900, 0.111
79.000, 0.104
79.100, 0.099
79.200, 0.106
79.300, 0.096
79.400, 0.112
79.500, 0.111
79.600, 0.102
79.700, 0.100
79.800, 0.103
79.900, 0.098
80.000, 0.106
80.100, 0.103
80.200, 0.106
80.300, 0.097
80.400, 0.107
80.500, 0.107
80.600, 0.105
80.700, 0.115
80.800, 0.102
80.900, 0.109
81.000, 0.103
81.100, 0.099
81.200, 0.110
81.300, 0.106
81.400, 0.107
81.500, 0.108
81.600, 0.102
81.700, 0.110
81.800, 0.111
81.900, 0.103
82.000, 0.113
82.100, 0.114
82.200, 0.107
82.300, 0.108
82.400, 0.104
82.500, 0.107
82.600, 0.102
82.700, 0.105
82.800, 0.100
82.900, 0.097
83.000, 0.090
83.100, 0.090
83.200, 0.091
83.300, 0.094
83.400, 0.092
83.500, 0.097
83.600, 0.095
83.700, 0.092
83.800, 0.100
83.900, 0.098
84.000, 0.094
84.100, 0.102
84.200, 0.108
84.300, 0.102
84.400, 0.103
84.500, 0.093
84.600, 0.092
84.700, 0.099
84.800, 0.100
84.900, 0.103
85.000, 0.113
85.100, 0.103
85.200, 0.098
85.300, 0.103
85.400, 0.099
85.500, 0.095
85.600, 0.104
85.700, 0.099
85.800, 0.098
85.900, 0.094
86.000, 0.096
86.100, 0.098
86.200, 0.099
86.300, 0.100
86.400, 0.094
86.500, 0.100
86.600, 0.098
86.700, 0.100
86.800, 0.094
86.900, 0.092
87.000, 0.096
87.100, 0.097
87.200, 0.100
87.300, 0.102
87.400, 0.108
87.500, 0.095
87.600, 0.103
87.700, 0.095
87.800, 0.088
87.900, 0.098
88.000, 0.091
88.100, 0.093
88.200, 0.095
88.300, 0.096
88.400, 0.100
88.500, 0.107
88.600, 0.096
88.700, 0.096
88.800, 0.101
88.900, 0.110
89.000, 0.100
89.100, 0.087
89.200, 0.097
89.300, 0.089
89.400, 0.095
89.500, 0.098
89.600, 0.102
89.700, 0.096
89.800, 0.097
89.900, 0.096
90.000, 0.097
90.100, 0.100
90.200, 0.093
90.300, 0.095
90.400, 0.104
90.500, 0.102
90.600, 0.099
90.700, 0.096
90.800, 0.099
90.900, 0.098
91.000, 0.098
91.100, 0.104
91.200, 0.096
91.300, 0.097
91.400, 0.100
91.500, 0.098
91.600, 0.095
91.700, 0.099
91.800, 0.097
91.900, 0.095
92.000, 0.103
92.100, 0.095
92.200, 0.097
92.300, 0.097
92.400, 0.106
92.500, 0.100
92.600, 0.108
92.700, 0.102
92.800, 0.101
92.900, 0.110
93.000, 0.096
93.100, 0.106
93.200, 0.100
93.300, 0.110
93.400, 0.104
93.500, 0.106
93.600, 0.098
93.700, 0.103
93.800, 0.100
93.900, 0.099
94.000, 0.092
94.100, 0.099
94.200, 0.103
94.300, 0.107
94.400, 0.101
94.500, 0.097
94.600, 0.099
94.700, 0.106
94.800, 0.100
94.900, 0.095
95.000, 0.098
95.100, 0.101
95.200, 0.097
95.300, 0.093
95.400, 0.100
95.500, 0.100
95.600, 0.099
95.700, 0.095
95.800, 0.096
95.900, 0.097
96.000, 0.087
96.100, 0.095
96.200, 0.098
96.300, 0.090
96.400, 0.104
96.500, 0.109
96.600, 0.105
96.700, 0.102
96.800, 0.097
96.900, 0.106
97.000, 0.097
97.100, 0.091
97.200, 0.096
97.300, 0.088
97.400, 0.089
97.500, 0.098
97.600, 0.083
97.700, 0.083
97.800, 0.094
97.900, 0.087
98.000, 0.092
98.100, 0.092
98.200, 0.089
98.300, 0.089
98.400, 0.095
98.500, 0.100
98.600, 0.089
98.700, 0.091
98.800, 0.089
98.900, 0.089
99.000, 0.100
99.100, 0.104
99.200, 0.103
99.300, 0.092
99.400, 0.083
99.500, 0.087
99.600, 0.083
99.700, 0.087
99.800, 0.091
99.900, 0.083
100.000, 0.084
100.100, 0.087
100.200, 0.095
100.300, 0.105
100.400, 0.087
100.500, 0.090
100.600, 0.092
100.700, 0.093
100.800, 0.083
100.900, 0.098
101.000, 0.087
101.100, 0.087
101.200, 0.102
101.300, 0.097
101.400, 0.104
101.500, 0.102
101.600, 0.093
101.700, 0.098
101.800, 0.097
101.900, 0.115
102.000, 0.132
102.100, 0.101
102.200, 0.110
102.300, 0.099
102.400, 0.104
102.500, 0.104
102.600, 0.109
102.700, 0.110
102.800, 0.099
102.900, 0.086
103.000, 0.100
103.100, 0.090
103.200, 0.089
103.300, 0.089
103.400, 0.089
103.500, 0.091
103.600, 0.087
103.700, 0.093
103.800, 0.093
103.900, 0.097
104.000, 0.093
104.100, 0.105
104.200, 0.098
104.300, 0.093
104.400, 0.098
104.500, 0.091
104.600, 0.096
104.700, 0.095
104.800, 0.101
104.900, 0.100
105.000, 0.109
105.100, 0.101
105.200, 0.103
105.300, 0.108
105.400, 0.104
105.500, 0.113
105.600, 0.103
105.700, 0.090
105.800, 0.104
105.900, 0.092
106.000, 0.088
106.100, 0.097
106.200, 0.098
106.300, 0.105
106.400, 0.105
106.500, 0.110
106.600, 0.102
106.700, 0.109
106.800, 0.096
106.900, 0.100
107.000, 0.102
107.100, 0.101
107.200, 0.109
107.300, 0.099
107.400, 0.103
107.500, 0.098
107.600, 0.108
107.700, 0.113
107.800, 0.112
107.900, 0.109
108.000, 0.107
108.100, 0.101
108.200, 0.096
108.300, 0.100
108.400, 0.107
108.500, 0.100
108.600, 0.103
108.700, 0.099
108.800, 0.099
108.900, 0.104
109.000, 0.108
109.100, 0.103
109.200, 0.109
109.300, 0.106
109.400, 0.111
109.500, 0.103
109.600, 0.109
109.700, 0.104
109.800, 0.101
109.900, 0.098
110.000, 0.113
110.100, 0.103
110.200, 0.097
110.300, 0.107
110.400, 0.101
110.500, 0.109
110.600, 0.104
110.700, 0.093
110.800, 0.093
110.900, 0.102
111.000, 0.099
111.100, 0.095
111.200, 0.087
111.300, 0.100
111.400, 0.086
111.500, 0.093
111.600, 0.100
111.700, 0.093
111.800, 0.095
111.900, 0.093
112.000, 0.094
112.100, 0.097
112.200, 0.094
112.300, 0.095
112.400, 0.098
112.500, 0.100
112.600, 0.097
112.700, 0.087
112.800, 0.094
112.900, 0.089
113.000, 0.090
113.100, 0.092
113.200, 0.091
113.300, 0.094
113.400, 0.100
113.500, 0.097
113.600, 0.096
113.700, 0.113
113.800, 0.108
113.900, 0.102
114.000, 0.102
114.100, 0.105
114.200, 0.096
114.300, 0.102
114.400, 0.096
114.500, 0.097
114.600, 0.100
114.700, 0.102
114.800, 0.095
114.900, 0.101
115.000, 0.102
115.100, 0.102
115.200, 0.091
115.300, 0.098
115.400, 0.097
115.500, 0.105
115.600, 0.095
115.700, 0.091
115.800, 0.096
115.900, 0.104
116.000, 0.090
116.100, 0.096
116.200, 0.099
116.300, 0.098
116.400, 0.101
116.500, 0.108
116.600, 0.092
116.700, 0.099
116.800, 0.097
116.900, 0.090
117.000, 0.093
117.100, 0.090
117.200, 0.091
117.300, 0.105
117.400, 0.100
117.500, 0.108
117.600, 0.101
117.700, 0.104
117.800, 0.101
117.900, 0.099
118.000, 0.099
118.100, 0.101
118.200, 0.101
118.300, 0.095
118.400, 0.098
118.500, 0.099
118.600, 0.098
118.700, 0.096
118.800, 0.097
118.900, 0.096
119.000, 0.099
119.100, 0.099
119.200, 0.100
119.300, 0.090
119.400, 0.095
119.500, 0.094
119.600, 0.096
119.700, 0.088
119.800, 0.084
119.900, 0.093
120.000, 0.095
120.100, 0.096
120.200, 0.096
120.300, 0.096
120.400, 0.090
120.500, 0.090
120.600, 0.088
120.700, 0.096
120.800, 0.094
120.900, 0.090
121.000, 0.094
121.100, 0.094
121.200, 0.093
121.300, 0.091
121.400, 0.086
121.500, 0.091
121.600, 0.103
121.700, 0.097
121.800, 0.091
121.900, 0.092
122.000, 0.094
122.100, 0.086
122.200, 0.091
122.300, 0.088
122.400, 0.088
122.500, 0.097
122.600, 0.104
122.700, 0.102
122.800, 0.103
122.900, 0.103
123.000, 0.099
123.100, 0.094
123.200, 0.094
123.300, 0.094
123.400, 0.099
123.500, 0.099
123.600, 0.107
123.700, 0.095
123.800, 0.101
123.900, 0.102
124.000, 0.098
124.100, 0.098
124.200, 0.100
124.300, 0.095
124.400, 0.095
124.500, 0.098
124.600, 0.099
124.700, 0.100
124.800, 0.104
124.900, 0.107
125.000, 0.097
125.100, 0.105
125.200, 0.106
125.300, 0.095
125.400, 0.092
125.500, 0.093
125.600, 0.096
125.700, 0.099
125.800, 0.101
125.900, 0.088
126.000, 0.089
126.100, 0.093
126.200, 0.092
126.300, 0.104
126.400, 0.090
126.500, 0.096
126.600, 0.097
126.700, 0.095
126.800, 0.103
126.900, 0.100
127.000, 0.095
127.100, 0.102
127.200, 0.094
127.300, 0.101
127.400, 0.105
127.500, 0.103
127.600, 0.097
127.700, 0.099
127.800, 0.105
127.900, 0.106
128.000, 0.102
128.100, 0.092
128.200, 0.090
128.300, 0.098
128.400, 0.106
128.500, 0.106
128.600, 0.110
128.700, 0.095
128.800, 0.100
128.900, 0.101
129.000, 0.107
129.100, 0.095
129.200, 0.106
129.300, 0.100
129.400, 0.097
129.500, 0.098
129.600, 0.096
129.700, 0.090
129.800, 0.093
129.900, 0.101
130.000, 0.100
130.100, 0.101
130.200, 0.106
130.300, 0.096
130.400, 0.104
130.500, 0.098
130.600, 0.095
130.700, 0.103
130.800, 0.106
130.900, 0.094
131.000, 0.099
131.100, 0.108
131.200, 0.101
131.300, 0.101
131.400, 0.089
131.500, 0.092
131.600, 0.096
131.700, 0.105
131.800, 0.103
131.900, 0.118
132.000, 0.109
132.100, 0.102
132.200, 0.100
132.300, 0.111
132.400, 0.101
132.500, 0.097
132.600, 0.101
132.700, 0.104
132.800, 0.100
132.900, 0.101
133.000, 0.102
133.100, 0.099
133.200, 0.104
133.300, 0.097
133.400, 0.101
133.500, 0.090
133.600, 0.108
133.700, 0.102
133.800, 0.099
133.900, 0.096
134.000, 0.096
134.100, 0.096
134.200, 0.098
134.300, 0.091
134.400, 0.096
134.500, 0.092
134.600, 0.096
134.700, 0.089
134.800, 0.100
134.900, 0.089
135.000, 0.092
135.100, 0.096
135.200, 0.097
135.300, 0.104
135.400, 0.108
135.500, 0.095
135.600, 0.091
135.700, 0.105
135.800, 0.091
135.900, 0.090
136.000, 0.090
136.100, 0.091
136.200, 0.086
136.300, 0.086
136.400, 0.091
136.500, 0.082
136.600, 0.092
136.700, 0.092
136.800, 0.097
136.900, 0.096
137.000, 0.102
137.100, 0.095
137.200, 0.088
137.300, 0.100
137.400, 0.095
137.500, 0.095
137.600, 0.087
137.700, 0.099
137.800, 0.090
137.900, 0.093
138.000, 0.086
138.100, 0.091
138.200, 0.092
138.300, 0.100
138.400, 0.112
138.500, 0.105
138.600, 0.097
138.700, 0.096
138.800, 0.097
138.900, 0.094
139.000, 0.098
139.100, 0.090
139.200, 0.098
139.300, 0.092
139.400, 0.101
139.500, 0.099
139.600, 0.102
139.700, 0.104
139.800, 0.109
139.900, 0.091
140.000, 0.094
140.100, 0.099
140.200, 0.100
140.300, 0.083
140.400, 0.094
140.500, 0.096
140.600, 0.088
140.700, 0.091
140.800, 0.093
140.900, 0.088
141.000, 0.084
141.100, 0.089
141.200, 0.091
141.300, 0.092
141.400, 0.094
141.500, 0.104
141.600, 0.109
141.700, 0.110
141.800, 0.106
141.900, 0.115
142.000, 0.096
142.100, 0.097
142.200, 0.115
142.300, 0.114
142.400, 0.110
142.500, 0.112
142.600, 0.098
142.700, 0.104
142.800, 0.114
142.900, 0.108
143.000, 0.107
143.100, 0.098
143.200, 0.094
143.300, 0.102
143.400, 0.101
143.500, 0.095
143.600, 0.084
143.700, 0.093
143.800, 0.087
143.900, 0.098
144.000, 0.096
144.100, 0.099
144.200, 0.110
144.300, 0.101
144.400, 0.097
144.500, 0.095
144.600, 0.100
144.700, 0.102
144.800, 0.098
144.900, 0.108
145.000, 0.110
145.100, 0.109
145.200, 0.110
145.300, 0.096
145.400, 0.091
145.500, 0.099
145.600, 0.106
145.700, 0.098
145.800, 0.097
145.900, 0.102
146.000, 0.102
146.100, 0.101
146.200, 0.095
146.300, 0.090
146.400, 0.099
146.500, 0.099
146.600, 0.098
146.700, 0.100
146.800, 0.092
146.900, 0.104
147.000, 0.098
147.100, 0.101
147.200, 0.102
147.300, 0.090
147.400, 0.098
147.500, 0.096
147.600, 0.093
147.700, 0.101
147.800, 0.100
147.900, 0.093
148.000, 0.116
148.100, 0.105
148.200, 0.108
148.300, 0.093
148.400, 0.097
148.500, 0.103
148.600, 0.095
148.700, 0.106
148.800, 0.117
148.900, 0.101
149.000, 0.091
149.100, 0.101
149.200, 0.111
149.300, 0.099
149.400, 0.095
149.500, 0.107
149.600, 0.108
149.700, 0.102
149.800, 0.107
149.900, 0.095
150.000, 0.100
150.100, 0.100
150.200, 0.111
150.300, 0.098
150.400, 0.102
150.500, 0.109
150.600, 0.104
150.700, 0.103
150.800, 0.089
150.900, 0.095
151.000, 0.113
151.100, 0.105
151.200, 0.115
151.300, 0.094
151.400, 0.099
151.500, 0.106
151.600, 0.100
151.700, 0.100
151.800, 0.095
151.900, 0.099
152.000, 0.103
152.100, 0.100
152.200, 0.099
152.300, 0.102
152.400, 0.096
152.500, 0.097
152.600, 0.111
152.700, 0.092
152.800, 0.097
152.900, 0.102
153.000, 0.098
153.100, 0.090
153.200, 0.102
153.300, 0.103
153.400, 0.098
153.500, 0.100
153.600, 0.099
153.700, 0.094
153.800, 0.096
153.900, 0.091
154.000, 0.101
154.100, 0.100
154.200, 0.110
154.300, 0.112
154.400, 0.099
154.500, 0.094
154.600, 0.090
154.700, 0.103
154.800, 0.099
154.900, 0.100
155.000, 0.097
155.100, 0.108
155.200, 0.101
155.300, 0.103
155.400, 0.100
155.500, 0.108
155.600, 0.104
155.700, 0.116
155.800, 0.101
155.900, 0.098
156.000, 0.110
156.100, 0.121
156.200, 0.106
156.300, 0.108
156.400, 0.112
156.500, 0.106
156.600, 0.095
156.700, 0.091
156.800, 0.095
156.900, 0.091
157.000, 0.093
157.100, 0.096
157.200, 0.094
157.300, 0.086
157.400, 0.089
157.500, 0.090
157.600, 0.096
157.700, 0.098
157.800, 0.105
157.900, 0.100
158.000, 0.107
158.100, 0.108
158.200, 0.106
158.300, 0.106
158.400, 0.102
158.500, 0.105
158.600, 0.099
158.700, 0.104
158.800, 0.115
158.900, 0.107
159.000, 0.103
159.100, 0.099
159.200, 0.104
159.300, 0.099
159.400, 0.102
159.500, 0.100
159.600, 0.105
159.700, 0.103
159.800, 0.095
159.900, 0.114
160.000, 0.106
160.100, 0.103
160.200, 0.108
160.300, 0.106
160.400, 0.102
160.500, 0.096
160.600, 0.102
160.700, 0.089
160.800, 0.096
160.900, 0.092
161.000, 0.102
161.100, 0.100
161.200, 0.097
161.300, 0.102
161.400, 0.097
161.500, 0.090
161.600, 0.091
161.700, 0.089
161.800, 0.094
161.900, 0.098
162.000, 0.096
162.100, 0.102
162.200, 0.091
162.300, 0.099
162.400, 0.095
162.500, 0.096
162.600, 0.100
162.700, 0.099
162.800, 0.101
162.900, 0.096
163.000, 0.090
163.100, 0.094
163.200, 0.094
163.300, 0.095
163.400, 0.091
163.500, 0.086
163.600, 0.096
163.700, 0.098
163.800, 0.100
163.900, 0.095
164.000, 0.095
164.100, 0.095
164.200, 0.099
164.300, 0.097
164.400, 0.094
164.500, 0.083
164.600, 0.089
164.700, 0.083
164.800, 0.095
164.900, 0.099
165.000, 0.099
165.100, 0.105
165.200, 0.101
165.300, 0.095
165.400, 0.092
165.500, 0.097
165.600, 0.093
165.700, 0.107
165.800, 0.111
165.900, 0.094
166.000, 0.093
166.100, 0.101
166.200, 0.084
166.300, 0.090
166.400, 0.096
166.500, 0.096
166.600, 0.099
166.700, 0.097
166.800, 0.091
166.900, 0.102
167.000, 0.097
167.100, 0.102
167.200, 0.111
167.300, 0.106
167.400, 0.096
167.500, 0.102
167.600, 0.102
167.700, 0.098
167.800, 0.105
167.900, 0.101
168.000, 0.103
168.100, 0.094
168.200, 0.092
168.300, 0.087
168.400, 0.090
168.500, 0.084
168.600, 0.091
168.700, 0.088
168.800, 0.095
168.900, 0.091
169.000, 0.096
169.100, 0.092
169.200, 0.102
169.300, 0.101
169.400, 0.096
169.500, 0.092
169.600, 0.100
169.700, 0.097
169.800, 0.100
169.900, 0.091
170.000, 0.101
170.100, 0.099
170.200, 0.093
170.300, 0.088
170.400, 0.090
170.500, 0.094
170.600, 0.097
170.700, 0.095
170.800, 0.088
170.900, 0.093
171.000, 0.089
171.100, 0.084
171.200, 0.085
171.300, 0.092
171.400, 0.092
171.500, 0.088
171.600, 0.094
171.700, 0.098
171.800, 0.092
171.900, 0.090
172.000, 0.090
172.100, 0.095
172.200, 0.089
172.300, 0.090
172.400, 0.092
172.500, 0.084
172.600, 0.084
172.700, 0.094
172.800, 0.080
172.900, 0.087
173.000, 0.088
173.100, 0.086
173.200, 0.090
173.300, 0.095
173.400, 0.097
173.500, 0.087
173.600, 0.083
173.700, 0.091
173.800, 0.084
173.900, 0.092
174.000, 0.086
174.100, 0.089
174.200, 0.099
174.300, 0.091
174.400, 0.094
174.500, 0.104
174.600, 0.108
174.700, 0.103
174.800, 0.103
174.900, 0.096
175.000, 0.092
175.100, 0.091
175.200, 0.096
175.300, 0.106
175.400, 0.100
175.500, 0.104
175.600, 0.103
175.700, 0.097
175.800, 0.096
175.900, 0.105
176.000, 0.105
176.100, 0.108
176.200, 0.103
176.300, 0.101
176.400, 0.106
176.500, 0.111
176.600, 0.100
176.700, 0.106
176.800, 0.104
176.900, 0.101
177.000, 0.111
177.100, 0.108
177.200, 0.104
177.300, 0.106
177.400, 0.110
177.500, 0.114
177.600, 0.109
177.700, 0.099
177.800, 0.111
177.900, 0.108
178.000, 0.117
178.100, 0.109
178.200, 0.111
178.300, 0.106
178.400, 0.112
178.500, 0.110
178.600, 0.113
178.700, 0.106
178.800, 0.117
178.900, 0.109
179.000, 0.113
179.100, 0.113
179.200, 0.115
179.300, 0.106
179.400, 0.107
179.500, 0.109
179.600, 0.108
179.700, 0.116
179.800, 0.105
179.900, 0.109
180.000, 0.108
180.100, 0.112
180.200, 0.112
180.300, 0.102
180.400, 0.103
180.500, 0.114
180.600, 0.114
180.700, 0.106
180.800, 0.105
180.900, 0.103
181.000, 0.118
181.100, 0.105
181.200, 0.107
181.300, 0.102
181.400, 0.103
181.500, 0.104
181.600, 0.097
181.700, 0.116
181.800, 0.111
181.900, 0.112
182.000, 0.102
182.100, 0.104
182.200, 0.106
182.300, 0.111
182.400, 0.115
182.500, 0.114
182.600, 0.118
182.700, 0.108
182.800, 0.121
182.900, 0.114
183.000, 0.119
183.100, 0.122
183.200, 0.098
183.300, 0.098
183.400, 0.095
183.500, 0.099
183.600, 0.104
183.700, 0.112
183.800, 0.100
183.900, 0.103
184.000, 0.106
184.100, 0.110
184.200, 0.104
184.300, 0.107
184.400, 0.103
184.500, 0.118
184.600, 0.115
184.700, 0.108
184.800, 0.108
184.900, 0.118
185.000, 0.121
185.100, 0.110
185.200, 0.111
185.300, 0.110
185.400, 0.106
185.500, 0.109
185.600, 0.114
185.700, 0.112
185.800, 0.116
185.900, 0.111
186.000, 0.113
186.100, 0.121
186.200, 0.109
186.300, 0.128
186.400, 0.113
186.500, 0.101
186.600, 0.106
186.700, 0.104
186.800, 0.099
186.900, 0.116
187.000, 0.107
187.100, 0.099
187.200, 0.113
187.300, 0.107
187.400, 0.104
187.500, 0.101
187.600, 0.101
187.700, 0.114
187.800, 0.113
187.900, 0.096
188.000, 0.095
188.100, 0.092
188.200, 0.097
188.300, 0.093
188.400, 0.099
188.500, 0.091
188.600, 0.086
188.700, 0.091
188.800, 0.096
188.900, 0.091
189.000, 0.092
189.100, 0.103
189.200, 0.096
189.300, 0.094
189.400, 0.091
189.500, 0.098
189.600, 0.099
189.700, 0.104
189.800, 0.100
189.900, 0.097
190.000, 0.094
190.100, 0.106
190.200, 0.095
190.300, 0.092
190.400, 0.093
190.500, 0.099
190.600, 0.105
190.700, 0.102
190.800, 0.097
190.900, 0.102
191.000, 0.095
191.100, 0.094
191.200, 0.109
191.300, 0.102
191.400, 0.103
191.500, 0.105
191.600, 0.104
191.700, 0.110
191.800, 0.102
191.900, 0.100
192.000, 0.104
192.100, 0.103
192.200, 0.100
192.300, 0.104
192.400, 0.106
192.500, 0.098
192.600, 0.098
192.700, 0.108
192.800, 0.098
192.900, 0.100
193.000, 0.098
193.100, 0.104
193.200, 0.111
193.300, 0.109
193.400, 0.107
193.500, 0.104
193.600, 0.097
193.700, 0.110
193.800, 0.111
193.900, 0.097
194.000, 0.094
194.100, 0.101
194.200, 0.113
194.300, 0.109
194.400, 0.109
194.500, 0.120
194.600, 0.104
194.700, 0.109
194.800, 0.098
194.900, 0.101
195.000, 0.106
195.100, 0.098
195.200, 0.091
195.300, 0.096
195.400, 0.101
195.500, 0.097
195.600, 0.100
195.700, 0.106
195.800, 0.108
195.900, 0.101
196.000, 0.093
196.100, 0.092
196.200, 0.100
196.300, 0.106
196.400, 0.100
196.500, 0.105
196.600, 0.105
196.700, 0.106
196.800, 0.105
196.900, 0.106
197.000, 0.100
197.100, 0.103
197.200, 0.101
197.300, 0.098
197.400, 0.099
197.500, 0.099
197.600, 0.100
197.700, 0.114
197.800, 0.111
197.900, 0.104
198.000, 0.124
198.100, 0.101
198.200, 0.106
198.300, 0.099
198.400, 0.105
198.500, 0.108
198.600, 0.113
198.700, 0.106
198.800, 0.109
198.900, 0.099
199.000, 0.098
199.100, 0.112
199.200, 0.096
199.300, 0.099
199.400, 0.107
199.500, 0.104
199.600, 0.109
199.700, 0.107
199.800, 0.110
199.900, 0.110
200.000, 0.100
200.100, 0.102
200.200, 0.097
200.300, 0.100
200.400, 0.115
200.500, 0.094
200.600, 0.102
200.700, 0.096
200.800, 0.100
200.900, 0.105
201.000, 0.111
201.100, 0.106
201.200, 0.106
201.300, 0.106
201.400, 0.108
201.500, 0.118
201.600, 0.117
201.700, 0.102
201.800, 0.111
201.900, 0.113
202.000, 0.117
202.100, 0.110
202.200, 0.115
202.300, 0.117
202.400, 0.114
202.500, 0.113
202.600, 0.102
202.700, 0.097
202.800, 0.105
202.900, 0.110
203.000, 0.112
203.100, 0.102
203.200, 0.100
203.300, 0.098
203.400, 0.113
203.500, 0.105
203.600, 0.097
203.700, 0.099
203.800, 0.107
203.900, 0.098
204.000, 0.094
204.100, 0.096
204.200, 0.110
204.300, 0.109
204.400, 0.096
204.500, 0.104
204.600, 0.106
204.700, 0.101
204.800, 0.099
204.900, 0.099
205.000, 0.104
205.100, 0.103
205.200, 0.114
205.300, 0.118
205.400, 0.096
205.500, 0.104
205.600, 0.108
205.700, 0.108
205.800, 0.098
205.900, 0.105
206.000, 0.095
206.100, 0.101
206.200, 0.119
206.300, 0.109
206.400, 0.100
206.500, 0.100
206.600, 0.099
206.700, 0.092
206.800, 0.094
206.900, 0.097
207.000, 0.092
207.100, 0.105
207.200, 0.101
207.300, 0.094
207.400, 0.100
207.500, 0.102
207.600, 0.091
207.700, 0.097
207.800, 0.101
207.900, 0.103
208.000, 0.101
208.100, 0.087
208.200, 0.092
208.300, 0.084
208.400, 0.101
208.500, 0.095
208.600, 0.100
208.700, 0.100
208.800, 0.103
208.900, 0.111
209.000, 0.122
209.100, 0.108
209.200, 0.100
209.300, 0.108
209.400, 0.104
209.500, 0.108
209.600, 0.101
209.700, 0.101
209.800, 0.108
209.900, 0.114
210.000, 0.099
210.100, 0.099
210.200, 0.101
210.300, 0.105
210.400, 0.100
210.500, 0.101
210.600, 0.103
210.700, 0.097
210.800, 0.093
210.900, 0.094
211.000, 0.100
211.100, 0.099
211.200, 0.102
211.300, 0.096
211.400, 0.096
211.500, 0.090
211.600, 0.102
211.700, 0.096
211.800, 0.099
211.900, 0.092
212.000, 0.095
212.100, 0.099
212.200, 0.092
212.300, 0.098
212.400, 0.094
212.500, 0.097
212.600, 0.103
212.700, 0.103
212.800, 0.104
212.900, 0.105
213.000, 0.106
213.100, 0.116
213.200, 0.115
213.300, 0.106
213.400, 0.102
213.500, 0.096
213.600, 0.099
213.700, 0.098
213.800, 0.103
213.900, 0.105
214.000, 0.104
214.100, 0.095
214.200, 0.104
214.300, 0.103
214.400, 0.106
214.500, 0.107
214.600, 0.106
214.700, 0.105
214.800, 0.111
214.900, 0.103
215.000, 0.110
215.100, 0.112
215.200, 0.103
215.300, 0.104
215.400, 0.109
215.500, 0.100
215.600, 0.105
215.700, 0.093
215.800, 0.094
215.900, 0.092
216.000, 0.096
216.100, 0.103
216.200, 0.091
216.300, 0.094
216.400, 0.093
216.500, 0.097
216.600, 0.099
216.700, 0.109
216.800, 0.094
216.900, 0.110
217.000, 0.104
217.100, 0.103
217.200, 0.120
217.300, 0.122
217.400, 0.123
217.500, 0.114
217.600, 0.104
217.700, 0.106
217.800, 0.100
217.900, 0.106
218.000, 0.108
218.100, 0.100
218.200, 0.098
218.300, 0.099
218.400, 0.105
218.500, 0.107
218.600, 0.111
218.700, 0.097
218.800, 0.094
218.900, 0.099
219.000, 0.102
219.100, 0.107
219.200, 0.107
219.300, 0.105
219.400, 0.104
219.500, 0.112
219.600, 0.102
219.700, 0.104
219.800, 0.093
219.900, 0.091
220.000, 0.091
220.100, 0.100
220.200, 0.098
220.300, 0.095
220.400, 0.102
220.500, 0.100
220.600, 0.098
220.700, 0.104
220.800, 0.110
220.900, 0.113
221.000, 0.094
221.100, 0.097
221.200, 0.110
221.300, 0.101
221.400, 0.096
221.500, 0.095
221.600, 0.099
221.700, 0.100
221.800, 0.099
221.900, 0.113
222.000, 0.100
222.100, 0.104
222.200, 0.094
222.300, 0.115
222.400, 0.099
222.500, 0.100
222.600, 0.101
222.700, 0.104
222.800, 0.108
222.900, 0.105
223.000, 0.104
223.100, 0.107
223.200, 0.091
223.300, 0.093
223.400, 0.092
223.500, 0.111
223.600, 0.095
223.700, 0.102
223.800, 0.114
223.900, 0.103
224.000, 0.114
224.100, 0.102
224.200, 0.099
224.300, 0.104
224.400, 0.098
224.500, 0.103
224.600, 0.107
224.700, 0.098
224.800, 0.102
224.900, 0.101
225.000, 0.098
225.100, 0.104
225.200, 0.104
225.300, 0.103
225.400, 0.096
225.500, 0.100
225.600, 0.102
225.700, 0.095
225.800, 0.100
225.900, 0.104
226.000, 0.100
226.100, 0.098
226.200, 0.109
226.300, 0.109
226.400, 0.103
226.500, 0.113
226.600, 0.109
226.700, 0.107
226.800, 0.112
226.900, 0.110
227.000, 0.102
227.100, 0.104
227.200, 0.095
227.300, 0.096
227.400, 0.094
227.500, 0.101
227.600, 0.110
227.700, 0.097
227.800, 0.107
227.900, 0.105
228.000, 0.099
228.100, 0.095
228.200, 0.085
228.300, 0.107
228.400, 0.110
228.500, 0.107
228.600, 0.106
228.700, 0.108
228.800, 0.105
228.900, 0.100
229.000, 0.101
229.100, 0.105
229.200, 0.101
229.300, 0.106
229.400, 0.100
229.500, 0.100
229.600, 0.102
229.700, 0.103
229.800, 0.107
229.900, 0.105
230.000, 0.100
230.100, 0.107
230.200, 0.105
230.300, 0.107
230.400, 0.104
230.500, 0.100
230.600, 0.102
230.700, 0.109
230.800, 0.100
230.900, 0.098
231.000, 0.098
231.100, 0.097
231.200, 0.101
231.300, 0.098
231.400, 0.096
231.500, 0.093
231.600, 0.091
231.700, 0.088
231.800, 0.102
231.900, 0.097
232.000, 0.094
232.100, 0.092
232.200, 0.104
232.300, 0.104
232.400, 0.095
232.500, 0.097
232.600, 0.091
232.700, 0.089
232.800, 0.100
232.900, 0.090
233.000, 0.095
233.100, 0.097
233.200, 0.101
233.300, 0.103
233.400, 0.089
233.500, 0.104
233.600, 0.101
233.700, 0.097
233.800, 0.097
233.900, 0.093
234.000, 0.097
234.100, 0.092
234.200, 0.085
234.300, 0.095
234.400, 0.096
234.500, 0.097
234.600, 0.094
234.700, 0.095
234.800, 0.098
234.900, 0.102
235.000, 0.103
235.100, 0.093
235.200, 0.104
235.300, 0.095
235.400, 0.091
235.500, 0.101
235.600, 0.101
235.700, 0.093
235.800, 0.100
235.900, 0.097
236.000, 0.110
236.100, 0.100
236.200, 0.096
236.300, 0.100
236.400, 0.106
236.500, 0.098
236.600, 0.096
236.700, 0.105
236.800, 0.101
236.900, 0.102
237.000, 0.090
237.100, 0.097
237.200, 0.097
237.300, 0.097
237.400, 0.098
237.500, 0.104
237.600, 0.099
237.700, 0.107
237.800, 0.104
237.900, 0.101
238.000, 0.111
238.100, 0.105
238.200, 0.109
238.300, 0.101
238.400, 0.091
238.500, 0.107
238.600, 0.098
238.700, 0.107
238.800, 0.112
238.900, 0.107
239.000, 0.107
239.100, 0.099
239.200, 0.091
239.300, 0.106
239.400, 0.089
239.500, 0.089
239.600, 0.092
239.700, 0.107
239.800, 0.098
239.900, 0.108
240.000, 0.111
240.100, 0.107
240.200, 0.101
240.300, 0.114
240.400, 0.119
240.500, 0.114
240.600, 0.102
240.700, 0.109
240.800, 0.101
240.900, 0.104
241.000, 0.095
241.100, 0.107
241.200, 0.104
241.300, 0.100
241.400, 0.099
241.500, 0.103
241.600, 0.097
241.700, 0.105
241.800, 0.100
241.900, 0.104
242.000, 0.106
242.100, 0.097
242.200, 0.100
242.300, 0.099
242.400, 0.104
242.500, 0.096
242.600, 0.104
242.700, 0.106
242.800, 0.100
242.900, 0.110
243.000, 0.102
243.100, 0.103
243.200, 0.102
243.300, 0.105
243.400, 0.107
243.500, 0.096
243.600, 0.099
243.700, 0.102
243.800, 0.105
243.900, 0.107
244.000, 0.104
244.100, 0.095
244.200, 0.101
244.300, 0.092
244.400, 0.092
244.500, 0.112
244.600, 0.108
244.700, 0.109
244.800, 0.105
244.900, 0.111
245.000, 0.106
245.100, 0.109
245.200, 0.106
245.300, 0.108
245.400, 0.107
245.500, 0.109
245.600, 0.110
245.700, 0.101
245.800, 0.106
245.900, 0.103
246.000, 0.100
246.100, 0.105
246.200, 0.098
246.300, 0.102
246.400, 0.088
246.500, 0.103
246.600, 0.099
246.700, 0.106
246.800, 0.099
246.900, 0.107
247.000, 0.099
247.100, 0.097
247.200, 0.095
247.300, 0.092
247.400, 0.088
247.500, 0.090
247.600, 0.094
247.700, 0.103
247.800, 0.100
247.900, 0.097
248.000, 0.107
248.100, 0.102
248.200, 0.105
248.300, 0.102
248.400, 0.099
248.500, 0.096
248.600, 0.098
248.700, 0.097
248.800, 0.089
248.900, 0.100
249.000, 0.092
249.100, 0.096
249.200, 0.094
249.300, 0.099
249.400, 0.097
249.500, 0.097
249.600, 0.111
249.700, 0.104
249.800, 0.105
249.900, 0.105
250.000, 0.102
250.100, 0.103
250.200, 0.096
250.300, 0.101
250.400, 0.095
250.500, 0.089
250.600, 0.095
250.700, 0.102
250.800, 0.097
250.900, 0.093
251.000, 0.098
251.100, 0.102
251.200, 0.099
251.300, 0.111
251.400, 0.112
251.500, 0.098
251.600, 0.103
251.700, 0.103
251.800, 0.100
251.900, 0.090
252.000, 0.108
252.100, 0.102
252.200, 0.093
252.300, 0.095
252.400, 0.091
252.500, 0.090
252.600, 0.098
252.700, 0.100
252.800, 0.097
252.900, 0.105
253.000, 0.110
253.100, 0.098
253.200, 0.091
253.300, 0.101
253.400, 0.108
253.500, 0.092
253.600, 0.089
253.700, 0.094
253.800, 0.094
253.900, 0.092
254.000, 0.092
254.100, 0.089
254.200, 0.085
254.300, 0.094
254.400, 0.095
254.500, 0.092
254.600, 0.086
254.700, 0.082
254.800, 0.085
254.900, 0.099
255.000, 0.092
255.100, 0.105
255.200, 0.094
255.300, 0.101
255.400, 0.090
255.500, 0.086
255.600, 0.091
255.700, 0.087
255.800, 0.090
255.900, 0.097
256.000, 0.092
256.100, 0.097
256.200, 0.089
256.300, 0.094
256.400, 0.096
256.500, 0.101
256.600, 0.088
256.700, 0.089
256.800, 0.085
256.900, 0.092
257.000, 0.100
257.100, 0.091
257.200, 0.095
257.300, 0.092
257.400, 0.096
257.500, 0.090
257.600, 0.091
257.700, 0.093
257.800, 0.097
257.900, 0.096
258.000, 0.085
258.100, 0.087
258.200, 0.088
258.300, 0.096
258.400, 0.090
258.500, 0.096
258.600, 0.091
258.700, 0.099
258.800, 0.094
258.900, 0.092
259.000, 0.098
259.100, 0.104
259.200, 0.087
259.300, 0.091
259.400, 0.092
259.500, 0.084
259.600, 0.084
259.700, 0.083
259.800, 0.092
259.900, 0.093
260.000, 0.093
260.100, 0.092
260.200, 0.093
260.300, 0.101
260.400, 0.097
260.500, 0.093
260.600, 0.085
260.700, 0.091
260.800, 0.082
260.900, 0.099
261.000, 0.094
261.100, 0.085
261.200, 0.092
261.300, 0.089
261.400, 0.084
261.500, 0.093
261.600, 0.099
261.700, 0.085
261.800, 0.090
261.900, 0.084
262.000, 0.082
262.100, 0.094
262.200, 0.102
262.300, 0.098
262.400, 0.090
262.500, 0.087
262.600, 0.098
262.700, 0.087
262.800, 0.097
262.900, 0.099
263.000, 0.087
263.100, 0.102
263.200, 0.094
263.300, 0.096
263.400, 0.096
263.500, 0.092
263.600, 0.105
263.700, 0.099
263.800, 0.095
263.900, 0.102
264.000, 0.098
264.100, 0.093
264.200, 0.088
264.300, 0.093
264.400, 0.098
264.500, 0.100
264.600, 0.100
264.700, 0.100
264.800, 0.093
264.900, 0.102
265.000, 0.099
265.100, 0.101
265.200, 0.095
265.300, 0.099
265.400, 0.102
265.500, 0.101
265.600, 0.098
265.700, 0.091
265.800, 0.098
265.900, 0.098
266.000, 0.096
266.100, 0.093
266.200, 0.106
266.300, 0.101
266.400, 0.100
266.500, 0.093
266.600, 0.093
266.700, 0.086
266.800, 0.088
266.900, 0.106
267.000, 0.112
267.100, 0.100
267.200, 0.088
267.300, 0.089
267.400, 0.093
267.500, 0.096
267.600, 0.110
267.700, 0.107
267.800, 0.100
267.900, 0.107
268.000, 0.102
268.100, 0.096
268.200, 0.100
268.300, 0.106
268.400, 0.093
268.500, 0.093
268.600, 0.079
268.700, 0.099
268.800, 0.092
268.900, 0.090
269.000, 0.084
269.100, 0.090
269.200, 0.096
269.300, 0.088
269.400, 0.091
269.500, 0.098
269.600, 0.096
269.700, 0.091
269.800, 0.096
269.900, 0.099
270.000, 0.094
270.100, 0.094
270.200, 0.094
270.300, 0.089
270.400, 0.095
270.500, 0.091
270.600, 0.092
270.700, 0.090
270.800, 0.094
270.900, 0.102
271.000, 0.098
271.100, 0.093
271.200, 0.099
271.300, 0.103
271.400, 0.103
271.500, 0.107
271.600, 0.099
271.700, 0.096
271.800, 0.097
271.900, 0.096
272.000, 0.091
272.100, 0.093
272.200, 0.104
272.300, 0.094
272.400, 0.086
272.500, 0.089
272.600, 0.088
272.700, 0.085
272.800, 0.082
272.900, 0.089
273.000, 0.088
273.100, 0.087
273.200, 0.097
273.300, 0.090
273.400, 0.096
273.500, 0.092
273.600, 0.098
273.700, 0.093
273.800, 0.088
273.900, 0.085
274.000, 0.080
274.100, 0.096
274.200, 0.096
274.300, 0.097
274.400, 0.101
274.500, 0.090
274.600, 0.090
274.700, 0.089
274.800, 0.100
274.900, 0.088
275.000, 0.089
275.100, 0.090
275.200, 0.086
275.300, 0.090
275.400, 0.088
275.500, 0.093
275.600, 0.091
275.700, 0.090
275.800, 0.105
275.900, 0.100
276.000, 0.099
276.100, 0.099
276.200, 0.096
276.300, 0.106
276.400, 0.099
276.500, 0.096
276.600, 0.090
276.700, 0.087
276.800, 0.087
276.900, 0.093
277.000, 0.093
277.100, 0.092
277.200, 0.087
277.300, 0.093
277.400, 0.090
277.500, 0.092
277.600, 0.094
277.700, 0.098
277.800, 0.098
277.900, 0.097
278.000, 0.098
278.100, 0.094
278.200, 0.091
278.300, 0.088
278.400, 0.095
278.500, 0.086
278.600, 0.098
278.700, 0.090
278.800, 0.103
278.900, 0.101
279.000, 0.102
279.100, 0.092
279.200, 0.093
279.300, 0.096
279.400, 0.089
279.500, 0.088
279.600, 0.093
279.700, 0.098
279.800, 0.093
279.900, 0.098
280.000, 0.099
280.100, 0.099
280.200, 0.088
280.300, 0.101
280.400, 0.101
280.500, 0.099
280.600, 0.101
280.700, 0.094
280.800, 0.098
280.900, 0.102
281.000, 0.106
281.100, 0.101
281.200, 0.102
281.300, 0.097
281.400, 0.108
281.500, 0.105
281.600, 0.102
281.700, 0.096
281.800, 0.089
281.900, 0.087
282.000, 0.083
282.100, 0.090
282.200, 0.090
282.300, 0.092
282.400, 0.098
282.500, 0.090
282.600, 0.088
282.700, 0.092
282.800, 0.091
282.900, 0.096
283.000, 0.102
283.100, 0.101
283.200, 0.105
283.300, 0.096
283.400, 0.101
283.500, 0.094
283.600, 0.096
283.700, 0.080
283.800, 0.081
283.900, 0.088
284.000, 0.089
284.100, 0.085
284.200, 0.097
284.300, 0.091
284.400, 0.088
284.500, 0.092
284.600, 0.085
284.700, 0.097
284.800, 0.089
284.900, 0.097
285.000, 0.084
285.100, 0.098
285.200, 0.104
285.300, 0.097
285.400, 0.107
285.500, 0.103
285.600, 0.119
285.700, 0.112
285.800, 0.090
285.900, 0.094
286.000, 0.086
286.100, 0.094
286.200, 0.090
286.300, 0.092
286.400, 0.086
286.500, 0.108
286.600, 0.094
286.700, 0.090
286.800, 0.089
286.900, 0.092
287.000, 0.087
287.100, 0.089
287.200, 0.088
287.300, 0.088
287.400, 0.083
287.500, 0.092
287.600, 0.083
287.700, 0.090
287.800, 0.082
287.900, 0.089
288.000, 0.092
288.100, 0.100
288.200, 0.100
288.300, 0.095
288.400, 0.091
288.500, 0.096
288.600, 0.091
288.700, 0.093
288.800, 0.094
288.900, 0.098
289.000, 0.101
289.100, 0.097
289.200, 0.090
289.300, 0.106
289.400, 0.091
289.500, 0.097
289.600, 0.093
289.700, 0.102
289.800, 0.101
289.900, 0.099
290.000, 0.101
290.100, 0.092
290.200, 0.094
290.300, 0.101
290.400, 0.087
290.500, 0.094
290.600, 0.087
290.700, 0.095
290.800, 0.093
290.900, 0.100
291.000, 0.098
291.100, 0.098
291.200, 0.086
291.300, 0.105
291.400, 0.099
291.500, 0.096
291.600, 0.095
291.700, 0.094
291.800, 0.103
291.900, 0.094
292.000, 0.091
292.100, 0.093
292.200, 0.099
292.300, 0.098
292.400, 0.089
292.500, 0.100
292.600, 0.104
292.700, 0.103
292.800, 0.095
292.900, 0.099
293.000, 0.090
293.100, 0.093
293.200, 0.102
293.300, 0.094
293.400, 0.097
293.500, 0.099
293.600, 0.098
293.700, 0.094
293.800, 0.099
293.900, 0.092
294.000, 0.091
294.100, 0.108
294.200, 0.101
294.300, 0.097
294.400, 0.101
294.500, 0.103
294.600, 0.104
294.700, 0.093
294.800, 0.091
294.900, 0.085
295.000, 0.090
295.100, 0.088
295.200, 0.093
295.300, 0.097
295.400, 0.095
295.500, 0.091
295.600, 0.095
295.700, 0.094
295.800, 0.089
295.900, 0.087
296.000, 0.090
296.100, 0.094
296.200, 0.095
296.300, 0.096
296.400, 0.092
296.500, 0.095
296.600, 0.104
296.700, 0.092
296.800, 0.100
296.900, 0.096
297.000, 0.106
297.100, 0.096
297.200, 0.097
297.300, 0.106
297.400, 0.101
297.500, 0.091
297.600, 0.093
297.700, 0.097
297.800, 0.100
297.900, 0.093
298.000, 0.096
298.100, 0.098
298.200, 0.092
298.300, 0.100
298.400, 0.089
298.500, 0.103
298.600, 0.098
298.700, 0.102
298.800, 0.094
298.900, 0.094
299.000, 0.098
299.100, 0.090
299.200, 0.100
299.300, 0.095
299.400, 0.104
299.500, 0.091
299.600, 0.089
299.700, 0.092
299.800, 0.093
299.900, 0.091
300.000, 0.091
300.100, 0.101
300.200, 0.095
300.300, 0.103
300.400, 0.108
300.500, 0.106
300.600, 0.105
300.700, 0.105
300.800, 0.092
300.900, 0.098
301.000, 0.096
301.100, 0.108
301.200, 0.109
301.300, 0.105
301.400, 0.095
301.500, 0.101
301.600, 0.110
301.700, 0.106
301.800, 0.102
301.900, 0.108
302.000, 0.094
302.100, 0.102
302.200, 0.101
302.300, 0.099
302.400, 0.106
302.500, 0.099
302.600, 0.108
302.700, 0.104
302.800, 0.103
302.900, 0.110
303.000, 0.107
303.100, 0.105
303.200, 0.097
303.300, 0.111
303.400, 0.102
303.500, 0.111
303.600, 0.105
303.700, 0.110
303.800, 0.102
303.900, 0.111
304.000, 0.103
304.100, 0.101
304.200, 0.096
304.300, 0.104
304.400, 0.095
304.500, 0.095
304.600, 0.097
304.700, 0.100
304.800, 0.094
304.900, 0.103
305.000, 0.084
305.100, 0.098
305.200, 0.097
305.300, 0.107
305.400, 0.097
305.500, 0.104
305.600, 0.106
305.700, 0.103
305.800, 0.101
305.900, 0.106
306.000, 0.107
306.100, 0.102
306.200, 0.108
306.300, 0.106
306.400, 0.116
306.500, 0.099
306.600, 0.109
306.700, 0.117
306.800, 0.110
306.900, 0.098
307.000, 0.111
307.100, 0.102
307.200, 0.106
307.300, 0.105
307.400, 0.109
307.500, 0.111
307.600, 0.102
307.700, 0.100
307.800, 0.103
307.900, 0.105
308.000, 0.102
308.100, 0.105
308.200, 0.109
308.300, 0.106
308.400, 0.096
308.500, 0.103
308.600, 0.107
308.700, 0.101
308.800, 0.101
308.900, 0.101
309.000, 0.098
309.100, 0.106
309.200, 0.098
309.300, 0.103
309.400, 0.106
309.500, 0.104
309.600, 0.094
309.700, 0.102
309.800, 0.098
309.900, 0.100
310.000, 0.100
310.100, 0.097
310.200, 0.107
310.300, 0.099
310.400, 0.103
310.500, 0.090
310.600, 0.097
310.700, 0.114
310.800, 0.111
310.900, 0.123
311.000, 0.120
311.100, 0.118
311.200, 0.115
311.300, 0.112
311.400, 0.109
311.500, 0.116
311.600, 0.114
311.700, 0.128
311.800, 0.120
311.900, 0.116
312.000, 0.124
312.100, 0.118
312.200, 0.110
312.300, 0.121
312.400, 0.126
312.500, 0.113
312.600, 0.114
312.700, 0.112
312.800, 0.103
312.900, 0.105
313.000, 0.108
313.100, 0.107
313.200, 0.105
313.300, 0.104
313.400, 0.096
313.500, 0.096
313.600, 0.105
313.700, 0.105
313.800, 0.105
313.900, 0.097
314.000, 0.095
314.100, 0.102
314.200, 0.103
314.300, 0.095
314.400, 0.095
314.500, 0.089
314.600, 0.093
314.700, 0.100
314.800, 0.095
314.900, 0.094
315.000, 0.102
315.100, 0.101
315.200, 0.090
315.300, 0.090
315.400, 0.095
315.500, 0.097
315.600, 0.092
315.700, 0.094
315.800, 0.102
315.900, 0.101
316.000, 0.098
316.100, 0.107
316.200, 0.093
316.300, 0.097
316.400, 0.103
316.500, 0.100
316.600, 0.102
316.700, 0.102
316.800, 0.097
316.900, 0.100
317.000, 0.101
317.100, 0.089
317.200, 0.092
317.300, 0.100
317.400, 0.104
317.500, 0.098
317.600, 0.099
317.700, 0.103
317.800, 0.096
317.900, 0.104
318.000, 0.105
318.100, 0.106
318.200, 0.098
318.300, 0.095
318.400, 0.099
318.500, 0.099
318.600, 0.102
318.700, 0.109
318.800, 0.110
318.900, 0.104
319.000, 0.102
319.100, 0.103
319.200, 0.100
319.300, 0.105
319.400, 0.107
319.500, 0.113
319.600, 0.109
319.700, 0.107
319.800, 0.107
319.900, 0.109
320.000, 0.107
320.100, 0.109
320.200, 0.111
320.300, 0.101
320.400, 0.116
320.500, 0.102
320.600, 0.092
320.700, 0.096
320.800, 0.113
320.900, 0.101
321.000, 0.102
321.100, 0.101
321.200, 0.097
321.300, 0.093
321.400, 0.106
321.500, 0.109
321.600, 0.107
321.700, 0.106
321.800, 0.103
321.900, 0.105
322.000, 0.099
322.100, 0.104
322.200, 0.105
322.300, 0.108
322.400, 0.102
322.500, 0.102
322.600, 0.109
322.700, 0.101
322.800, 0.097
322.900, 0.106
323.000, 0.111
323.100, 0.103
323.200, 0.107
323.300, 0.114
323.400, 0.107
323.500, 0.104
323.600, 0.103
323.700, 0.099
323.800, 0.099
323.900, 0.107
324.000, 0.104
324.100, 0.108
324.200, 0.110
324.300, 0.118
324.400, 0.113
324.500, 0.102
324.600, 0.115
324.700, 0.114
324.800, 0.107
324.900, 0.112
325.000, 0.106
325.100, 0.113
325.200, 0.104
325.300, 0.109
325.400, 0.107
325.500, 0.105
325.600, 0.112
325.700, 0.112
325.800, 0.103
325.900, 0.105
326.000, 0.116
326.100, 0.108
326.200, 0.093
326.300, 0.097
326.400, 0.100
326.500, 0.104
326.600, 0.106
326.700, 0.098
326.800, 0.109
326.900, 0.109
327.000, 0.113
327.100, 0.109
327.200, 0.108
327.300, 0.109
327.400, 0.104
327.500, 0.107
327.600, 0.111
327.700, 0.116
327.800, 0.113
327.900, 0.115
328.000, 0.109
328.100, 0.116
328.200, 0.110
328.300, 0.111
328.400, 0.111
328.500, 0.110
328.600, 0.104
328.700, 0.099
328.800, 0.105
328.900, 0.099
329.000, 0.098
329.100, 0.109
329.200, 0.098
329.300, 0.105
329.400, 0.117
329.500, 0.104
329.600, 0.116
329.700, 0.107
329.800, 0.124
329.900, 0.111
330.000, 0.116
330.100, 0.111
330.200, 0.113
330.300, 0.112
330.400, 0.107
330.500, 0.107
330.600, 0.115
330.700, 0.108
330.800, 0.109
330.900, 0.111
331.000, 0.112
331.100, 0.115
331.200, 0.108
331.300, 0.119
331.400, 0.099
331.500, 0.100
331.600, 0.104
331.700, 0.104
331.800, 0.096
331.900, 0.106
332.000, 0.105
332.100, 0.102
332.200, 0.110
332.300, 0.105
332.400, 0.110
332.500, 0.108
332.600, 0.106
332.700, 0.101
332.800, 0.109
332.900, 0.107
333.000, 0.109
333.100, 0.099
333.200, 0.101
333.300, 0.101
333.400, 0.102
333.500, 0.099
333.600, 0.107
333.700, 0.100
333.800, 0.108
333.900, 0.104
334.000, 0.115
334.100, 0.099
334.200, 0.108
334.300, 0.111
334.400, 0.103
334.500, 0.108
334.600, 0.110
334.700, 0.108
334.800, 0.103
334.900, 0.109
335.000, 0.110
335.100, 0.106
335.200, 0.096
335.300, 0.098
335.400, 0.104
335.500, 0.102
335.600, 0.105
335.700, 0.104
335.800, 0.102
335.900, 0.101
336.000, 0.103
336.100, 0.101
336.200, 0.100
336.300, 0.099
336.400, 0.105
336.500, 0.099
336.600, 0.100
336.700, 0.101
336.800, 0.108
336.900, 0.102
337.000, 0.102
337.100, 0.105
337.200, 0.100
337.300, 0.101
337.400, 0.106
337.500, 0.097
337.600, 0.102
337.700, 0.105
337.800, 0.111
337.900, 0.108
338.000, 0.111
338.100, 0.110
338.200, 0.110
338.300, 0.101
338.400, 0.109
338.500, 0.108
338.600, 0.114
338.700, 0.113
338.800, 0.107
338.900, 0.106
339.000, 0.105
339.100, 0.099
339.200, 0.103
339.300, 0.103
339.400, 0.107
339.500, 0.107
339.600, 0.104
339.700, 0.109
339.800, 0.105
339.900, 0.098
340.000, 0.098
340.100, 0.103
340.200, 0.099
340.300, 0.108
340.400, 0.103
340.500, 0.102
340.600, 0.107
340.700, 0.110
340.800, 0.115
340.900, 0.102
341.000, 0.102
341.100, 0.106
341.200, 0.103
341.300, 0.109
341.400, 0.099
341.500, 0.098
341.600, 0.100
341.700, 0.103
341.800, 0.111
341.900, 0.107
342.000, 0.097
342.100, 0.093
342.200, 0.101
342.300, 0.099
342.400, 0.105
342.500, 0.101
342.600, 0.094
342.700, 0.105
342.800, 0.106
342.900, 0.100
343.000, 0.102
343.100, 0.107
343.200, 0.099
343.300, 0.099
343.400, 0.106
343.500, 0.099
343.600, 0.106
343.700, 0.112
343.800, 0.111
343.900, 0.122
344.000, 0.112
344.100, 0.108
344.200, 0.114
344.300, 0.110
344.400, 0.112
344.500, 0.113
344.600, 0.120
344.700, 0.111
344.800, 0.108
344.900, 0.105
345.000, 0.110
345.100, 0.106
345.200, 0.101
345.300, 0.099
345.400, 0.104
345.500, 0.100
345.600, 0.114
345.700, 0.108
345.800, 0.109
345.900, 0.117
346.000, 0.109
346.100, 0.108
346.200, 0.111
346.300, 0.104
346.400, 0.111
346.500, 0.109
346.600, 0.105
346.700, 0.107
346.800, 0.103
346.900, 0.102
347.000, 0.112
347.100, 0.106
347.200, 0.103
347.300, 0.094
347.400, 0.101
347.500, 0.105
347.600, 0.094
347.700, 0.097
347.800, 0.096
347.900, 0.101
348.000, 0.097
348.100, 0.098
348.200, 0.113
348.300, 0.102
348.400, 0.095
348.500, 0.098
348.600, 0.098
348.700, 0.095
348.800, 0.103
348.900, 0.106
349.000, 0.099
349.100, 0.093
349.200, 0.095
349.300, 0.093
349.400, 0.096
349.500, 0.104
349.600, 0.107
349.700, 0.107
349.800, 0.104
349.900, 0.092
350.000, 0.095
350.100, 0.092
350.200, 0.098
350.300, 0.100
350.400, 0.099
350.500, 0.097
350.600, 0.094
350.700, 0.099
350.800, 0.096
350.900, 0.104
351.000, 0.101
351.100, 0.097
351.200, 0.105
351.300, 0.109
351.400, 0.105
351.500, 0.101
351.600, 0.107
351.700, 0.110
351.800, 0.104
351.900, 0.099
352.000, 0.105
352.100, 0.104
352.200, 0.102
352.300, 0.103
352.400, 0.101
352.500, 0.103
352.600, 0.100
352.700, 0.096
352.800, 0.106
352.900, 0.100
353.000, 0.102
353.100, 0.104
353.200, 0.109
353.300, 0.105
353.400, 0.110
353.500, 0.115
353.600, 0.110
353.700, 0.107
353.800, 0.106
353.900, 0.107
354.000, 0.109
354.100, 0.108
354.200, 0.111
354.300, 0.115
354.400, 0.105
354.500, 0.101
354.600, 0.093
354.700, 0.110
354.800, 0.106
354.900, 0.103
355.000, 0.108
355.100, 0.107
355.200, 0.103
355.300, 0.104
355.400, 0.109
355.500, 0.096
355.600, 0.107
355.700, 0.111
355.800, 0.104
355.900, 0.108
356.000, 0.101
356.100, 0.099
356.200, 0.099
356.300, 0.107
356.400, 0.102
356.500, 0.091
356.600, 0.111
356.700, 0.108
356.800, 0.106
356.900, 0.102
357.000, 0.099
357.100, 0.100
357.200, 0.106
357.300, 0.096
357.400, 0.090
357.500, 0.095
357.600, 0.103
357.700, 0.101
357.800, 0.102
357.900, 0.105
358.000, 0.109
358.100, 0.109
358.200, 0.102
358.300, 0.100
358.400, 0.097
358.500, 0.107
358.600, 0.103
358.700, 0.105
358.800, 0.108
358.900, 0.099
359.000, 0.095
359.100, 0.099
359.200, 0.102
359.300, 0.109
359.400, 0.101
359.500, 0.107
359.600, 0.104
359.700, 0.104
359.800, 0.099
359.900, 0.101
360.000, 0.107
360.100, 0.109
360.200, 0.109
360.300, 0.098
360.400, 0.097
360.500, 0.102
360.600, 0.108
360.700, 0.110
360.800, 0.106
360.900, 0.111
361.000, 0.106
361.100, 0.101
361.200, 0.104
361.300, 0.109
361.400, 0.103
361.500, 0.106
361.600, 0.109
361.700, 0.107
361.800, 0.117
361.900, 0.117
362.000, 0.109
362.100, 0.112
362.200, 0.106
362.300, 0.106
362.400, 0.101
362.500, 0.108
362.600, 0.110
362.700, 0.122
362.800, 0.121
362.900, 0.103
363.000, 0.103
363.100, 0.108
363.200, 0.117
363.300, 0.114
363.400, 0.114
363.500, 0.102
363.600, 0.111
363.700, 0.114
363.800, 0.101
363.900, 0.103
364.000, 0.117
364.100, 0.113
364.200, 0.092
364.300, 0.110
364.400, 0.086
364.500, 0.103
364.600, 0.097
364.700, 0.098
364.800, 0.102
364.900, 0.094
365.000, 0.093
365.100, 0.086
365.200, 0.099
365.300, 0.101
365.400, 0.097
365.500, 0.104
365.600, 0.102
365.700, 0.094
365.800, 0.100
365.900, 0.095
366.000, 0.102
366.100, 0.099
366.200, 0.100
366.300, 0.103
366.400, 0.104
366.500, 0.105
366.600, 0.105
366.700, 0.108
366.800, 0.102
366.900, 0.099
367.000, 0.097
367.100, 0.104
367.200, 0.098
367.300, 0.111
367.400, 0.116
367.500, 0.102
367.600, 0.111
367.700, 0.113
367.800, 0.103
367.900, 0.114
368.000, 0.115
368.100, 0.115
368.200, 0.102
368.300, 0.106
368.400, 0.107
368.500, 0.100
368.600, 0.102
368.700, 0.100
368.800, 0.101
368.900, 0.094
369.000, 0.098
369.100, 0.102
369.200, 0.100
369.300, 0.096
369.400, 0.093
369.500, 0.103
369.600, 0.090
369.700, 0.104
369.800, 0.102
369.900, 0.100
370.000, 0.102
370.100, 0.101
370.200, 0.102
370.300, 0.097
370.400, 0.108
370.500, 0.093
370.600, 0.091
370.700, 0.102
370.800, 0.099
370.900, 0.087
371.000, 0.093
371.100, 0.099
371.200, 0.096
371.300, 0.096
371.400, 0.094
371.500, 0.097
371.600, 0.099
371.700, 0.101
371.800, 0.106
371.900, 0.098
372.000, 0.105
372.100, 0.113
372.200, 0.104
372.300, 0.109
372.400, 0.101
372.500, 0.100
372.600, 0.105
372.700, 0.098
372.800, 0.099
372.900, 0.099
373.000, 0.104
373.100, 0.107
373.200, 0.110
373.300, 0.112
373.400, 0.107
373.500, 0.107
373.600, 0.107
373.700, 0.105
373.800, 0.112
373.900, 0.099
374.000, 0.101
374.100, 0.099
374.200, 0.095
374.300, 0.100
374.400, 0.099
374.500, 0.094
374.600, 0.088
374.700, 0.099
374.800, 0.102
374.900, 0.105
375.000, 0.100
375.100, 0.104
375.200, 0.102
375.300, 0.097
375.400, 0.102
375.500, 0.099
375.600, 0.099
375.700, 0.101
375.800, 0.118
375.900, 0.103
376.000, 0.106
376.100, 0.108
376.200, 0.105
376.300, 0.101
376.400, 0.094
376.500, 0.116
376.600, 0.106
376.700, 0.104
376.800, 0.095
376.900, 0.097
377.000, 0.103
377.100, 0.099
377.200, 0.098
377.300, 0.094
377.400, 0.099
377.500, 0.095
377.600, 0.103
377.700, 0.099
377.800, 0.115
377.900, 0.102
378.000, 0.103
378.100, 0.103
378.200, 0.092
378.300, 0.089
378.400, 0.093
378.500, 0.093
378.600, 0.091
378.700, 0.109
378.800, 0.096
378.900, 0.101
379.000, 0.104
379.100, 0.122
379.200, 0.114
379.300, 0.110
379.400, 0.112
379.500, 0.112
379.600, 0.105
379.700, 0.109
379.800, 0.107
379.900, 0.108
380.000, 0.102
380.100, 0.091
380.200, 0.089
380.300, 0.096
380.400, 0.089
380.500, 0.107
380.600, 0.102
380.700, 0.089
380.800, 0.100
380.900, 0.100
381.000, 0.097
381.100, 0.092
381.200, 0.093
381.300, 0.099
381.400, 0.096
381.500, 0.104
381.600, 0.097
381.700, 0.110
381.800, 0.111
381.900, 0.105
382.000, 0.094
382.100, 0.091
382.200, 0.097
382.300, 0.098
382.400, 0.095
382.500, 0.107
382.600, 0.105
382.700, 0.114
382.800, 0.100
382.900, 0.099
383.000, 0.097
383.100, 0.099
383.200, 0.102
383.300, 0.108
383.400, 0.105
383.500, 0.108
383.600, 0.110
383.700, 0.107
383.800, 0.110
383.900, 0.106
384.000, 0.100
384.100, 0.092
384.200, 0.099
384.300, 0.095
384.400, 0.095
384.500, 0.091
384.600, 0.101
384.700, 0.092
384.800, 0.103
384.900, 0.096
385.000, 0.090
385.100, 0.097
385.200, 0.099
385.300, 0.097
385.400, 0.099
385.500, 0.096
385.600, 0.095
385.700, 0.107
385.800, 0.094
385.900, 0.093
386.000, 0.089
386.100, 0.092
386.200, 0.094
386.300, 0.093
386.400, 0.092
386.500, 0.093
386.600, 0.099
386.700, 0.089
386.800, 0.099
386.900, 0.103
387.000, 0.093
387.100, 0.082
387.200, 0.080
387.300, 0.094
387.400, 0.098
387.500, 0.100
387.600, 0.093
387.700, 0.090
387.800, 0.086
387.900, 0.105
388.000, 0.090
388.100, 0.102
388.200, 0.096
388.300, 0.090
388.400, 0.097
388.500, 0.089
388.600, 0.098
388.700, 0.095
388.800, 0.085
388.900, 0.087
389.000, 0.097
389.100, 0.097
389.200, 0.092
389.300, 0.093
389.400, 0.090
389.500, 0.101
389.600, 0.097
389.700, 0.096
389.800, 0.103
389.900, 0.091
390.000, 0.090
390.100, 0.100
390.200, 0.097
390.300, 0.097
390.400, 0.094
390.500, 0.096
390.600, 0.081
390.700, 0.088
390.800, 0.101
390.900, 0.100
391.000, 0.097
391.100, 0.100
391.200, 0.093
391.300, 0.101
391.400, 0.085
391.500, 0.097
391.600, 0.106
391.700, 0.102
391.800, 0.103
391.900, 0.096
392.000, 0.099
392.100, 0.096
392.200, 0.103
392.300, 0.102
392.400, 0.092
392.500, 0.109
392.600, 0.103
392.700, 0.116
392.800, 0.102
392.900, 0.101
393.000, 0.105
393.100, 0.107
393.200, 0.097
393.300, 0.095
393.400, 0.099
393.500, 0.097
393.600, 0.104
393.700, 0.103
393.800, 0.105
393.900, 0.090
394.000, 0.099
394.100, 0.102
394.200, 0.091
394.300, 0.096
394.400, 0.098
394.500, 0.093
394.600, 0.097
394.700, 0.107
394.800, 0.090
394.900, 0.094
395.000, 0.097
395.100, 0.094
395.200, 0.096
395.300, 0.104
395.400, 0.083
395.500, 0.101
395.600, 0.107
395.700, 0.095
395.800, 0.104
395.900, 0.097
396.000, 0.099
396.100, 0.104
396.200, 0.094
396.300, 0.100
396.400, 0.103
396.500, 0.105
396.600, 0.097
396.700, 0.103
396.800, 0.096
396.900, 0.089
397.000, 0.096
397.100, 0.099
397.200, 0.101
397.300, 0.107
397.400, 0.097
397.500, 0.087
397.600, 0.096
397.700, 0.090
397.800, 0.098
397.900, 0.099
398.000, 0.098
398.100, 0.100
398.200, 0.108
398.300, 0.108
398.400, 0.103
398.500, 0.095
398.600, 0.104
398.700, 0.120
398.800, 0.100
398.900, 0.100
399.000, 0.114
399.100, 0.097
399.200, 0.113
399.300, 0.106
399.400, 0.103
399.500, 0.114
399.600, 0.114
399.700, 0.116
399.800, 0.120
399.900, 0.097
400.000, 0.102
400.100, 0.108
400.200, 0.100
400.300, 0.106
400.400, 0.104
400.500, 0.105
400.600, 0.102
400.700, 0.101
400.800, 0.110
400.900, 0.103
401.000, 0.102
401.100, 0.102
401.200, 0.101
401.300, 0.102
401.400, 0.097
401.500, 0.097
401.600, 0.096
401.700, 0.094
401.800, 0.105
401.900, 0.102
402.000, 0.101
402.100, 0.090
402.200, 0.095
402.300, 0.094
402.400, 0.094
402.500, 0.093
402.600, 0.095
402.700, 0.095
402.800, 0.090
402.900, 0.093
403.000, 0.094
403.100, 0.093
403.200, 0.096
403.300, 0.103
403.400, 0.103
403.500, 0.095
403.600, 0.099
403.700, 0.106
403.800, 0.094
403.900, 0.100
404.000, 0.091
404.100, 0.095
404.200, 0.097
404.300, 0.092
404.400, 0.093
404.500, 0.093
404.600, 0.094
404.700, 0.100
404.800, 0.103
404.900, 0.106
405.000, 0.090
405.100, 0.096
405.200, 0.101
405.300, 0.098
405.400, 0.095
405.500, 0.092
405.600, 0.107
405.700, 0.098
405.800, 0.104
405.900, 0.105
406.000, 0.112
406.100, 0.104
406.200, 0.102
406.300, 0.098
406.400, 0.088
406.500, 0.087
406.600, 0.098
406.700, 0.096
406.800, 0.099
406.900, 0.102
407.000, 0.098
407.100, 0.097
407.200, 0.089
407.300, 0.101
407.400, 0.100
407.500, 0.093
407.600, 0.091
407.700, 0.095
407.800, 0.099
407.900, 0.100
408.000, 0.094
408.100, 0.103
408.200, 0.101
408.300, 0.096
408.400, 0.091
408.500, 0.102
408.600, 0.095
408.700, 0.100
408.800, 0.099
408.900, 0.091
409.000, 0.088
409.100, 0.095
409.200, 0.092
409.300, 0.093
409.400, 0.092
409.500, 0.103
409.600, 0.096
409.700, 0.094
409.800, 0.095
409.900, 0.089
410.000, 0.095
410.100, 0.086
410.200, 0.086
410.300, 0.087
410.400, 0.092
410.500, 0.105
410.600, 0.094
410.700, 0.102
410.800, 0.093
410.900, 0.087
411.000, 0.100
411.100, 0.102
411.200, 0.099
411.300, 0.095
411.400, 0.099
411.500, 0.099
411.600, 0.097
411.700, 0.103
411.800, 0.094
411.900, 0.085
412.000, 0.093
412.100, 0.102
412.200, 0.105
412.300, 0.096
412.400, 0.088
412.500, 0.088
412.600, 0.091
412.700, 0.100
412.800, 0.109
412.900, 0.094
413.000, 0.094
413.100, 0.091
413.200, 0.094
413.300, 0.097
413.400, 0.091
413.500, 0.093
413.600, 0.101
413.700, 0.093
413.800, 0.098
413.900, 0.088
414.000, 0.094
414.100, 0.100
414.200, 0.093
414.300, 0.095
414.400, 0.092
414.500, 0.094
414.600, 0.100
414.700, 0.102
414.800, 0.096
414.900, 0.102
415.000, 0.103
415.100, 0.096
415.200, 0.099
415.300, 0.106
415.400, 0.102
415.500, 0.105
415.600, 0.110
415.700, 0.104
415.800, 0.100
415.900, 0.109
416.000, 0.101
416.100, 0.104
416.200, 0.108
416.300, 0.108
416.400, 0.110
416.500, 0.100
416.600, 0.107
416.700, 0.100
416.800, 0.096
416.900, 0.095
417.000, 0.092
417.100, 0.100
417.200, 0.096
417.300, 0.101
417.400, 0.096
417.500, 0.100
417.600, 0.097
417.700, 0.096
417.800, 0.100
417.900, 0.091
418.000, 0.090
418.100, 0.096
418.200, 0.094
418.300, 0.089
418.400, 0.094
418.500, 0.095
418.600, 0.096
418.700, 0.091
418.800, 0.090
418.900, 0.094
419.000, 0.097
419.100, 0.093
419.200, 0.094
419.300, 0.094
419.400, 0.092
419.500, 0.093
419.600, 0.093
419.700, 0.095
419.800, 0.095
419.900, 0.090
420.000, 0.091
420.100, 0.085
420.200, 0.094
420.300, 0.096
420.400, 0.092
420.500, 0.090
420.600, 0.092
420.700, 0.097
420.800, 0.095
420.900, 0.092
421.000, 0.090
421.100, 0.094
421.200, 0.092
421.300, 0.098
421.400, 0.102
421.500, 0.108
421.600, 0.112
421.700, 0.116
421.800, 0.109
421.900, 0.093
422.000, 0.101
422.100, 0.105
422.200, 0.106
422.300, 0.100
422.400, 0.096
422.500, 0.095
422.600, 0.096
422.700, 0.091
422.800, 0.094
422.900, 0.087
423.000, 0.092
423.100, 0.097
423.200, 0.100
423.300, 0.096
423.400, 0.093
423.500, 0.092
423.600, 0.097
423.700, 0.103
423.800, 0.103
423.900, 0.107
424.000, 0.105
424.100, 0.088
424.200, 0.102
424.300, 0.106
424.400, 0.103
424.500, 0.108
424.600, 0.106
424.700, 0.096
424.800, 0.105
424.900, 0.107
425.000, 0.098
425.100, 0.111
425.200, 0.106
425.300, 0.110
425.400, 0.107
425.500, 0.104
425.600, 0.103
425.700, 0.105
425.800, 0.104
425.900, 0.097
426.000, 0.099
426.100, 0.101
426.200, 0.102
426.300, 0.101
426.400, 0.106
426.500, 0.109
426.600, 0.102
426.700, 0.107
426.800, 0.093
426.900, 0.096
427.000, 0.110
427.100, 0.110
427.200, 0.099
427.300, 0.102
427.400, 0.103
427.500, 0.108
427.600, 0.102
427.700, 0.109
427.800, 0.100
427.900, 0.114
428.000, 0.111
428.100, 0.101
428.200, 0.115
428.300, 0.097
428.400, 0.108
428.500, 0.104
428.600, 0.108
428.700, 0.118
428.800, 0.114
428.900, 0.117
429.000, 0.111
429.100, 0.117
429.200, 0.104
429.300, 0.113
429.400, 0.102
429.500, 0.104
429.600, 0.093
429.700, 0.098
429.800, 0.098
429.900, 0.095
430.000, 0.098
430.100, 0.109
430.200, 0.103
430.300, 0.111
430.400, 0.099
430.500, 0.098
430.600, 0.104
430.700, 0.093
430.800, 0.100
430.900, 0.094
431.000, 0.088
431.100, 0.104
431.200, 0.110
431.300, 0.111
431.400, 0.095
431.500, 0.096
431.600, 0.103
431.700, 0.099
431.800, 0.098
431.900, 0.095
432.000, 0.099
432.100, 0.093
432.200, 0.091
432.300, 0.108
432.400, 0.088
432.500, 0.101
432.600, 0.091
432.700, 0.094
432.800, 0.090
432.900, 0.100
433.000, 0.107
433.100, 0.112
433.200, 0.111
433.300, 0.101
433.400, 0.105
433.500, 0.104
433.600, 0.097
433.700, 0.092
433.800, 0.096
433.900, 0.094
434.000, 0.102
434.100, 0.106
434.200, 0.100
434.300, 0.093
434.400, 0.080
434.500, 0.091
434.600, 0.090
434.700, 0.098
434.800, 0.091
434.900, 0.095
435.000, 0.105
435.100, 0.099
435.200, 0.095
435.300, 0.094
435.400, 0.089
435.500, 0.097
435.600, 0.084
435.700, 0.087
435.800, 0.081
435.900, 0.081
436.000, 0.097
436.100, 0.094
436.200, 0.102
436.300, 0.105
436.400, 0.090
436.500, 0.097
436.600, 0.103
436.700, 0.107
436.800, 0.104
436.900, 0.102
437.000, 0.092
437.100, 0.101
437.200, 0.098
437.300, 0.086
437.400, 0.093
437.500, 0.084
437.600, 0.097
437.700, 0.088
437.800, 0.097
437.900, 0.097
438.000, 0.094
438.100, 0.096
438.200, 0.096
438.300, 0.091
438.400, 0.092
438.500, 0.094
438.600, 0.089
438.700, 0.098
438.800, 0.097
438.900, 0.100
439.000, 0.088
439.100, 0.089
439.200, 0.103
439.300, 0.096
439.400, 0.101
439.500, 0.091
439.600, 0.106
439.700, 0.108
439.800, 0.096
439.900, 0.100
440.000, 0.110
440.100, 0.107
440.200, 0.101
440.300, 0.107
440.400, 0.121
440.500, 0.111
440.600, 0.109
440.700, 0.109
440.800, 0.102
440.900, 0.095
441.000, 0.108
441.100, 0.104
441.200, 0.107
441.300, 0.109
441.400, 0.101
441.500, 0.101
441.600, 0.104
441.700, 0.108
441.800, 0.116
441.900, 0.111
442.000, 0.110
442.100, 0.122
442.200, 0.110
442.300, 0.105
442.400, 0.106
442.500, 0.104
442.600, 0.103
442.700, 0.114
442.800, 0.103
442.900, 0.105
443.000, 0.105
443.100, 0.104
443.200, 0.095
443.300, 0.089
443.400, 0.094
443.500, 0.098
443.600, 0.096
443.700, 0.093
443.800, 0.097
443.900, 0.095
444.000, 0.102
444.100, 0.103
444.200, 0.091
444.300, 0.100
444.400, 0.086
444.500, 0.092
444.600, 0.095
444.700, 0.088
444.800, 0.090
444.900, 0.082
445.000, 0.082
445.100, 0.091
445.200, 0.079
445.300, 0.092
445.400, 0.087
445.500, 0.094
445.600, 0.090
445.700, 0.098
445.800, 0.097
445.900, 0.096
446.000, 0.105
446.100, 0.094
446.200, 0.087
446.300, 0.093
446.400, 0.091
446.500, 0.092
446.600, 0.099
446.700, 0.095
446.800, 0.096
446.900, 0.100
447.000, 0.101
447.100, 0.092
447.200, 0.095
447.300, 0.091
447.400, 0.090
447.500, 0.093
447.600, 0.086
447.700, 0.100
447.800, 0.090
447.900, 0.095
448.000, 0.093
448.100, 0.099
448.200, 0.093
448.300, 0.093
448.400, 0.110
448.500, 0.103
448.600, 0.101
448.700, 0.107
448.800, 0.101
448.900, 0.097
449.000, 0.102
449.100, 0.096
449.200, 0.092
449.300, 0.090
449.400, 0.087
449.500, 0.090
449.600, 0.093
449.700, 0.086
449.800, 0.083
449.900, 0.093
450.000, 0.094
450.100, 0.090
450.200, 0.091
450.300, 0.090
450.400, 0.088
450.500, 0.091
450.600, 0.095
450.700, 0.092
450.800, 0.089
450.900, 0.095
451.000, 0.093
451.100, 0.090
451.200, 0.099
451.300, 0.106
451.400, 0.104
451.500, 0.100
451.600, 0.097
451.700, 0.099
451.800, 0.097
451.900, 0.092
452.000, 0.096
452.100, 0.102
452.200, 0.099
452.300, 0.100
452.400, 0.103
452.500, 0.101
452.600, 0.105
452.700, 0.104
452.800, 0.110
452.900, 0.097
453.000, 0.113
453.100, 0.112
453.200, 0.103
453.300, 0.104
453.400, 0.096
453.500, 0.099
453.600, 0.093
453.700, 0.105
453.800, 0.105
453.900, 0.105
454.000, 0.096
454.100, 0.096
454.200, 0.097
454.300, 0.099
454.400, 0.096
454.500, 0.097
454.600, 0.106
454.700, 0.099
454.800, 0.108
454.900, 0.107
455.000, 0.103
455.100, 0.110
455.200, 0.105
455.300, 0.109
455.400, 0.098
455.500, 0.106
455.600, 0.105
455.700, 0.103
455.800, 0.110
455.900, 0.095
456.000, 0.111
456.100, 0.096
456.200, 0.091
456.300, 0.100
456.400, 0.096
456.500, 0.102
456.600, 0.094
456.700, 0.089
456.800, 0.106
456.900, 0.089
457.000, 0.095
457.100, 0.094
457.200, 0.096
457.300, 0.102
457.400, 0.100
457.500, 0.090
457.600, 0.100
457.700, 0.092
457.800, 0.091
457.900, 0.089
458.000, 0.098
458.100, 0.101
458.200, 0.097
458.300, 0.094
458.400, 0.102
458.500, 0.090
458.600, 0.094
458.700, 0.092
458.800, 0.093
458.900, 0.091
459.000, 0.097
459.100, 0.093
459.200, 0.100
459.300, 0.097
459.400, 0.096
459.500, 0.104
459.600, 0.085
459.700, 0.103
459.800, 0.096
459.900, 0.087
460.000, 0.094
460.100, 0.086
460.200, 0.098
460.300, 0.107
460.400, 0.102
460.500, 0.100
460.600, 0.112
460.700, 0.100
460.800, 0.106
460.900, 0.095
461.000, 0.094
461.100, 0.091
461.200, 0.092
461.300, 0.091
461.400, 0.094
461.500, 0.089
461.600, 0.088
461.700, 0.087
461.800, 0.083
461.900, 0.103
462.000, 0.093
462.100, 0.091
462.200, 0.096
462.300, 0.091
462.400, 0.099
462.500, 0.095
462.600, 0.088
462.700, 0.093
462.800, 0.099
462.900, 0.098
463.000, 0.087
463.100, 0.095
463.200, 0.096
463.300, 0.094
463.400, 0.093
463.500, 0.094
463.600, 0.090
463.700, 0.097
463.800, 0.083
463.900, 0.089
464.000, 0.085
464.100, 0.087
464.200, 0.085
464.300, 0.085
464.400, 0.083
464.500, 0.084
464.600, 0.086
464.700, 0.097
464.800, 0.089
464.900, 0.092
465.000, 0.099
465.100, 0.093
465.200, 0.107
465.300, 0.098
465.400, 0.093
465.500, 0.099
465.600, 0.092
465.700, 0.091
465.800, 0.095
465.900, 0.100
466.000, 0.095
466.100, 0.091
466.200, 0.090
466.300, 0.093
466.400, 0.085
466.500, 0.090
466.600, 0.091
466.700, 0.091
466.800, 0.097
466.900, 0.095
467.000, 0.092
467.100, 0.084
467.200, 0.087
467.300, 0.090
467.400, 0.098
467.500, 0.103
467.600, 0.086
467.700, 0.092
467.800, 0.091
467.900, 0.096
468.000, 0.098
468.100, 0.089
468.200, 0.084
468.300, 0.086
468.400, 0.085
468.500, 0.088
468.600, 0.094
468.700, 0.084
468.800, 0.086
468.900, 0.085
469.000, 0.090
469.100, 0.076
469.200, 0.087
469.300, 0.088
469.400, 0.083
469.500, 0.096
469.600, 0.093
469.700, 0.084
469.800, 0.097
469.900, 0.085
470.000, 0.084
470.100, 0.092
470.200, 0.086
470.300, 0.090
470.400, 0.087
470.500, 0.089
470.600, 0.093
470.700, 0.086
470.800, 0.083
470.900, 0.082
471.000, 0.082
471.100, 0.079
471.200, 0.083
471.300, 0.086
471.400, 0.083
471.500, 0.091
471.600, 0.078
471.700, 0.079
471.800, 0.078
471.900, 0.078
472.000, 0.086
472.100, 0.082
472.200, 0.084
472.300, 0.082
472.400, 0.087
472.500, 0.078
472.600, 0.081
472.700, 0.080
472.800, 0.081
472.900, 0.086
473.000, 0.084
473.100, 0.080
473.200, 0.089
473.300, 0.089
473.400, 0.088
473.500, 0.095
473.600, 0.090
473.700, 0.080
473.800, 0.086
473.900, 0.089
474.000, 0.090
474.100, 0.088
474.200, 0.085
474.300, 0.087
474.400, 0.091
474.500, 0.088
474.600, 0.087
474.700, 0.088
474.800, 0.083
474.900, 0.093
475.000, 0.086
475.100, 0.080
475.200, 0.085
475.300, 0.085
475.400, 0.093
475.500, 0.088
475.600, 0.088
475.700, 0.094
475.800, 0.084
475.900, 0.083
476.000, 0.092
476.100, 0.090
476.200, 0.086
476.300, 0.089
476.400, 0.087
476.500, 0.087
476.600, 0.084
476.700, 0.081
476.800, 0.086
476.900, 0.082
477.000, 0.082
477.100, 0.078
477.200, 0.085
477.300, 0.085
477.400, 0.082
477.500, 0.096
477.600, 0.083
477.700, 0.085
477.800, 0.089
477.900, 0.089
478.000, 0.084
478.100, 0.083
478.200, 0.098
478.300, 0.086
478.400, 0.080
478.500, 0.081
478.600, 0.081
478.700, 0.086
478.800, 0.094
478.900, 0.100
479.000, 0.104
479.100, 0.102
479.200, 0.098
479.300, 0.104
479.400, 0.106
479.500, 0.104
479.600, 0.106
479.700, 0.102
479.800, 0.103
479.900, 0.103
480.000, 0.108
480.100, 0.088
480.200, 0.094
480.300, 0.094
480.400, 0.095
480.500, 0.100
480.600, 0.094
480.700, 0.102
480.800, 0.092
480.900, 0.093
481.000, 0.100
481.100, 0.085
481.200, 0.093
481.300, 0.089
481.400, 0.089
481.500, 0.090
481.600, 0.092
481.700, 0.094
481.800, 0.089
481.900, 0.088
482.000, 0.095
482.100, 0.086
482.200, 0.087
482.300, 0.085
482.400, 0.095
482.500, 0.093
482.600, 0.097
482.700, 0.095
482.800, 0.095
482.900, 0.089
483.000, 0.086
483.100, 0.085
483.200, 0.094
483.300, 0.092
483.400, 0.089
483.500, 0.091
483.600, 0.093
483.700, 0.092
483.800, 0.099
483.900, 0.093
484.000, 0.097
484.100, 0.086
484.200, 0.091
484.300, 0.100
484.400, 0.095
484.500, 0.089
484.600, 0.085
484.700, 0.088
484.800, 0.095
484.900, 0.099
485.000, 0.101
485.100, 0.090
485.200, 0.082
485.300, 0.085
485.400, 0.087
485.500, 0.093
485.600, 0.091
485.700, 0.099
485.800, 0.093
485.900, 0.087
486.000, 0.087
486.100, 0.087
486.200, 0.093
486.300, 0.096
486.400, 0.097
486.500, 0.094
486.600, 0.085
486.700, 0.098
486.800, 0.099
486.900, 0.089
487.000, 0.096
487.100, 0.098
487.200, 0.090
487.300, 0.089
487.400, 0.089
487.500, 0.108
487.600, 0.120
487.700, 0.103
487.800, 0.092
487.900, 0.092
488.000, 0.096
488.100, 0.104
488.200, 0.096
488.300, 0.092
488.400, 0.091
488.500, 0.086
488.600, 0.084
488.700, 0.092
488.800, 0.086
488.900, 0.078
489.000, 0.081
489.100, 0.084
489.200, 0.092
489.300, 0.084
489.400, 0.089
489.500, 0.090
489.600, 0.090
489.700, 0.085
489.800, 0.089
489.900, 0.083
490.000, 0.087
490.100, 0.098
490.200, 0.094
490.300, 0.096
490.400, 0.095
490.500, 0.093
490.600, 0.087
490.700, 0.096
490.800, 0.098
490.900, 0.089
491.000, 0.082
491.100, 0.088
491.200, 0.089
491.300, 0.089
491.400, 0.083
491.500, 0.099
491.600, 0.096
491.700, 0.092
491.800, 0.084
491.900, 0.086
492.000, 0.083
492.100, 0.078
492.200, 0.092
492.300, 0.086
492.400, 0.077
492.500, 0.091
492.600, 0.089
492.700, 0.080
492.800, 0.088
492.900, 0.086
493.000, 0.089
493.100, 0.101
493.200, 0.095
493.300, 0.083
493.400, 0.089
493.500, 0.087
493.600, 0.082
493.700, 0.084
493.800, 0.106
493.900, 0.089
494.000, 0.088
494.100, 0.098
494.200, 0.092
494.300, 0.088
494.400, 0.081
494.500, 0.091
494.600, 0.088
494.700, 0.086
494.800, 0.084
494.900, 0.086
495.000, 0.092
495.100, 0.091
495.200, 0.090
495.300, 0.083
495.400, 0.081
495.500, 0.092
495.600, 0.092
495.700, 0.087
495.800, 0.092
495.900, 0.086
496.000, 0.091
496.100, 0.090
496.200, 0.087
496.300, 0.102
496.400, 0.088
496.500, 0.085
496.600, 0.085
496.700, 0.083
496.800, 0.084
496.900, 0.088
497.000, 0.080
497.100, 0.094
497.200, 0.088
497.300, 0.088
497.400, 0.086
497.500, 0.087
497.600, 0.087
497.700, 0.090
497.800, 0.097
497.900, 0.096
498.000, 0.095
498.100, 0.091
498.200, 0.095
498.300, 0.091
498.400, 0.089
498.500, 0.105
498.600, 0.095
498.700, 0.093
498.800, 0.095
498.900, 0.104
499.000, 0.097
499.100, 0.094
499.200, 0.084
499.300, 0.096
499.400, 0.099
499.500, 0.097
499.600, 0.096
499.700, 0.089
499.800, 0.090
499.900, 0.088
500.000, 0.088
500.100, 0.085
500.200, 0.087
500.300, 0.084
500.400, 0.092
500.500, 0.091
500.600, 0.107
500.700, 0.102
500.800, 0.105
500.900, 0.097
501.000, 0.094
501.100, 0.093
501.200, 0.088
501.300, 0.094
501.400, 0.096
501.500, 0.091
501.600, 0.089
501.700, 0.089
501.800, 0.096
501.900, 0.100
502.000, 0.101
502.100, 0.097
502.200, 0.106
502.300, 0.098
502.400, 0.103
502.500, 0.111
502.600, 0.093
502.700, 0.095
502.800, 0.098
502.900, 0.095
503.000, 0.095
503.100, 0.093
503.200, 0.096
503.300, 0.092
503.400, 0.093
503.500, 0.095
503.600, 0.090
503.700, 0.100
503.800, 0.097
503.900, 0.096
504.000, 0.093
504.100, 0.097
504.200, 0.106
504.300, 0.093
504.400, 0.098
504.500, 0.097
504.600, 0.096
504.700, 0.100
504.800, 0.095
504.900, 0.095
505.000, 0.105
505.100, 0.111
505.200, 0.102
505.300, 0.117
505.400, 0.103
505.500, 0.098
505.600, 0.103
505.700, 0.099
505.800, 0.101
505.900, 0.098
506.000, 0.100
506.100, 0.094
506.200, 0.093
506.300, 0.090
506.400, 0.091
506.500, 0.090
506.600, 0.087
506.700, 0.086
506.800, 0.087
506.900, 0.090
507.000, 0.081
507.100, 0.081
507.200, 0.087
507.300, 0.093
507.400, 0.095
507.500, 0.090
507.600, 0.088
507.700, 0.096
507.800, 0.092
507.900, 0.095
508.000, 0.085
508.100, 0.092
508.200, 0.088
508.300, 0.091
508.400, 0.090
508.500, 0.086
508.600, 0.091
508.700, 0.091
508.800, 0.092
508.900, 0.093
509.000, 0.085
509.100, 0.093
509.200, 0.096
509.300, 0.085
509.400, 0.091
509.500, 0.090
509.600, 0.088
509.700, 0.094
509.800, 0.096
509.900, 0.097
510.000, 0.086
510.100, 0.098
510.200, 0.104
510.300, 0.091
510.400, 0.093
510.500, 0.094
510.600, 0.098
510.700, 0.106
510.800, 0.096
510.900, 0.088
511.000, 0.098
511.100, 0.092
511.200, 0.087
511.300, 0.096
511.400, 0.094
511.500, 0.095
511.600, 0.098
511.700, 0.093
511.800, 0.094
511.900, 0.087
512.000, 0.101
512.100, 0.109
512.200, 0.095
512.300, 0.100
512.400, 0.098
512.500, 0.099
512.600, 0.102
512.700, 0.104
512.800, 0.104
512.900, 0.102
513.000, 0.098
513.100, 0.106
513.200, 0.093
513.300, 0.083
513.400, 0.086
513.500, 0.092
513.600, 0.085
513.700, 0.091
513.800, 0.091
513.900, 0.101
514.000, 0.102
514.100, 0.099
514.200, 0.093
514.300, 0.094
514.400, 0.096
514.500, 0.092
514.600, 0.095
514.700, 0.103
514.800, 0.100
514.900, 0.097
515.000, 0.104
515.100, 0.088
515.200, 0.099
515.300, 0.102
515.400, 0.091
515.500, 0.101
515.600, 0.092
515.700, 0.096
515.800, 0.093
515.900, 0.110
516.000, 0.107
516.100, 0.100
516.200, 0.100
516.300, 0.096
516.400, 0.085
516.500, 0.104
516.600, 0.100
516.700, 0.109
516.800, 0.098
516.900, 0.106
517.000, 0.105
517.100, 0.100
517.200, 0.106
517.300, 0.106
517.400, 0.100
517.500, 0.105
517.600, 0.105
517.700, 0.097
517.800, 0.102
517.900, 0.100
518.000, 0.109
518.100, 0.105
518.200, 0.103
518.300, 0.103
518.400, 0.101
518.500, 0.106
518.600, 0.098
518.700, 0.110
518.800, 0.093
518.900, 0.106
519.000, 0.101
519.100, 0.102
519.200, 0.102
519.300, 0.087
519.400, 0.091
519.500, 0.099
519.600, 0.102
519.700, 0.108
519.800, 0.109
519.900, 0.111
520.000, 0.114
520.100, 0.101
520.200, 0.101
520.300, 0.101
520.400, 0.094
520.500, 0.089
520.600, 0.090
520.700, 0.093
520.800, 0.099
520.900, 0.109
521.000, 0.094
521.100, 0.098
521.200, 0.095
521.300, 0.082
521.400, 0.096
521.500, 0.099
521.600, 0.101
521.700, 0.106
521.800, 0.102
521.900, 0.093
522.000, 0.093
522.100, 0.100
522.200, 0.100
522.300, 0.111
522.400, 0.098
522.500, 0.102
522.600, 0.105
522.700, 0.094
522.800, 0.092
522.900, 0.093
523.000, 0.095
523.100, 0.092
523.200, 0.090
523.300, 0.097
523.400, 0.098
523.500, 0.098
523.600, 0.100
523.700, 0.101
523.800, 0.098
523.900, 0.091
524.000, 0.095
524.100, 0.100
524.200, 0.105
524.300, 0.097
524.400, 0.092
524.500, 0.103
524.600, 0.101
524.700, 0.101
524.800, 0.107
524.900, 0.090
525.000, 0.099
525.100, 0.096
525.200, 0.093
525.300, 0.089
525.400, 0.102
525.500, 0.098
525.600, 0.106
525.700, 0.095
525.800, 0.091
525.900, 0.092
526.000, 0.094
526.100, 0.084
526.200, 0.097
526.300, 0.093
526.400, 0.088
526.500, 0.085
526.600, 0.090
526.700, 0.087
526.800, 0.094
526.900, 0.094
527.000, 0.093
527.100, 0.085
527.200, 0.089
527.300, 0.088
527.400, 0.090
527.500, 0.082
527.600, 0.086
527.700, 0.099
527.800, 0.090
527.900, 0.090
528.000, 0.095
528.100, 0.093
528.200, 0.102
528.300, 0.093
528.400, 0.091
528.500, 0.094
528.600, 0.104
528.700, 0.102
528.800, 0.096
528.900, 0.096
529.000, 0.098
529.100, 0.092
529.200, 0.102
529.300, 0.093
529.400, 0.098
529.500, 0.097
529.600, 0.094
529.700, 0.094
529.800, 0.098
529.900, 0.101
530.000, 0.098
530.100, 0.099
530.200, 0.106
530.300, 0.107
530.400, 0.102
530.500, 0.105
530.600, 0.094
530.700, 0.098
530.800, 0.092
530.900, 0.090
531.000, 0.099
531.100, 0.096
531.200, 0.097
531.300, 0.088
531.400, 0.090
531.500, 0.098
531.600, 0.081
531.700, 0.100
531.800, 0.102
531.900, 0.099
532.000, 0.098
532.100, 0.100
532.200, 0.089
532.300, 0.093
532.400, 0.092
532.500, 0.099
532.600, 0.094
532.700, 0.087
532.800, 0.094
532.900, 0.096
533.000, 0.092
533.100, 0.091
533.200, 0.078
533.300, 0.094
533.400, 0.087
533.500, 0.089
533.600, 0.082
533.700, 0.093
533.800, 0.089
533.900, 0.087
534.000, 0.091
534.100, 0.094
534.200, 0.093
534.300, 0.083
534.400, 0.083
534.500, 0.089
534.600, 0.090
534.700, 0.092
534.800, 0.090
534.900, 0.087
535.000, 0.087
535.100, 0.083
535.200, 0.084
535.300, 0.081
535.400, 0.085
535.500, 0.087
535.600, 0.086
535.700, 0.090
535.800, 0.098
535.900, 0.082
536.000, 0.097
536.100, 0.094
536.200, 0.095
536.300, 0.090
536.400, 0.085
536.500, 0.083
536.600, 0.085
536.700, 0.092
536.800, 0.092
536.900, 0.090
537.000, 0.091
537.100, 0.099
537.200, 0.092
537.300, 0.086
537.400, 0.092
537.500, 0.086
537.600, 0.093
537.700, 0.098
537.800, 0.096
537.900, 0.097
538.000, 0.098
538.100, 0.096
538.200, 0.104
538.300, 0.094
538.400, 0.105
538.500, 0.109
538.600, 0.089
538.700, 0.096
538.800, 0.094
538.900, 0.091
539.000, 0.096
539.100, 0.093
539.200, 0.099
539.300, 0.093
539.400, 0.099
539.500, 0.089
539.600, 0.089
539.700, 0.089
539.800, 0.094
539.900, 0.101
540.000, 0.104
540.100, 0.089
540.200, 0.098
540.300, 0.103
540.400, 0.094
540.500, 0.088
540.600, 0.083
540.700, 0.088
540.800, 0.087
540.900, 0.097
541.000, 0.090
541.100, 0.095
541.200, 0.088
541.300, 0.089
541.400, 0.087
541.500, 0.092
541.600, 0.092
541.700, 0.092
541.800, 0.096
541.900, 0.090
542.000, 0.095
542.100, 0.085
542.200, 0.089
542.300, 0.104
542.400, 0.093
542.500, 0.097
542.600, 0.092
542.700, 0.100
542.800, 0.096
542.900, 0.095
543.000, 0.090
543.100, 0.096
543.200, 0.099
543.300, 0.095
543.400, 0.088
543.500, 0.086
543.600, 0.093
543.700, 0.106
543.800, 0.098
543.900, 0.099
544.000, 0.092
544.100, 0.097
544.200, 0.094
544.300, 0.102
544.400, 0.101
544.500, 0.093
544.600, 0.097
544.700, 0.099
544.800, 0.100
544.900, 0.100
545.000, 0.101
545.100, 0.100
545.200, 0.093
545.300, 0.105
545.400, 0.102
545.500, 0.102
545.600, 0.106
545.700, 0.096
545.800, 0.096
545.900, 0.089
546.000, 0.097
546.100, 0.096
546.200, 0.098
546.300, 0.088
546.400, 0.090
546.500, 0.085
546.600, 0.091
546.700, 0.088
546.800, 0.095
546.900, 0.092
547.000, 0.093
547.100, 0.085
547.200, 0.091
547.300, 0.093
547.400, 0.090
547.500, 0.087
547.600, 0.092
547.700, 0.092
547.800, 0.087
547.900, 0.097
548.000, 0.098
548.100, 0.096
548.200, 0.098
548.300, 0.096
548.400, 0.099
548.500, 0.097
548.600, 0.098
548.700, 0.102
548.800, 0.098
548.900, 0.096
549.000, 0.095
549.100, 0.096
549.200, 0.094
549.300, 0.095
549.400, 0.099
549.500, 0.098
549.600, 0.102
549.700, 0.105
549.800, 0.098
549.900, 0.097
550.000, 0.087
550.100, 0.091
550.200, 0.094
550.300, 0.082
550.400, 0.092
550.500, 0.077
550.600, 0.088
550.700, 0.099
550.800, 0.089
550.900, 0.091
551.000, 0.088
551.100, 0.094
551.200, 0.095
551.300, 0.096
551.400, 0.098
551.500, 0.088
551.600, 0.094
551.700, 0.108
551.800, 0.101
551.900, 0.098
552.000, 0.093
552.100, 0.094
552.200, 0.101
552.300, 0.104
552.400, 0.090
552.500, 0.090
552.600, 0.099
552.700, 0.095
552.800, 0.099
552.900, 0.107
553.000, 0.106
553.100, 0.103
553.200, 0.102
553.300, 0.101
553.400, 0.106
553.500, 0.106
553.600, 0.113
553.700, 0.113
553.800, 0.105
553.900, 0.099
554.000, 0.095
554.100, 0.096
554.200, 0.095
554.300, 0.099
554.400, 0.100
554.500, 0.100
554.600, 0.102
554.700, 0.100
554.800, 0.102
554.900, 0.089
555.000, 0.100
555.100, 0.100
555.200, 0.108
555.300, 0.110
555.400, 0.106
555.500, 0.119
555.600, 0.114
555.700, 0.114
555.800, 0.113
555.900, 0.109
556.000, 0.102
556.100, 0.098
556.200, 0.103
556.300, 0.097
556.400, 0.104
556.500, 0.100
556.600, 0.092
556.700, 0.092
556.800, 0.099
556.900, 0.101
557.000, 0.097
557.100, 0.095
557.200, 0.102
557.300, 0.108
557.400, 0.102
557.500, 0.100
557.600, 0.107
557.700, 0.105
557.800, 0.111
557.900, 0.105
558.000, 0.106
558.100, 0.105
558.200, 0.114
558.300, 0.108
558.400, 0.114
558.500, 0.116
558.600, 0.112
558.700, 0.111
558.800, 0.110
558.900, 0.111
559.000, 0.108
559.100, 0.118
559.200, 0.108
559.300, 0.117
559.400, 0.108
559.500, 0.111
559.600, 0.109
559.700, 0.116
559.800, 0.117
559.900, 0.114
560.000, 0.113
560.100, 0.109
560.200, 0.116
560.300, 0.114
560.400, 0.122
560.500, 0.108
560.600, 0.107
560.700, 0.109
560.800, 0.110
560.900, 0.115
561.000, 0.110
561.100, 0.108
561.200, 0.097
561.300, 0.110
561.400, 0.105
561.500, 0.108
561.600, 0.115
561.700, 0.115
561.800, 0.119
561.900, 0.122
562.000, 0.118
562.100, 0.110
562.200, 0.110
562.300, 0.111
562.400, 0.110
562.500, 0.114
562.600, 0.108
562.700, 0.121
562.800, 0.110
562.900, 0.099
563.000, 0.098
563.100, 0.105
563.200, 0.108
563.300, 0.113
563.400, 0.097
563.500, 0.105
563.600, 0.103
563.700, 0.098
563.800, 0.099
563.900, 0.114
564.000, 0.118
564.100, 0.107
564.200, 0.098
564.300, 0.097
564.400, 0.099
564.500, 0.103
564.600, 0.109
564.700, 0.114
564.800, 0.104
564.900, 0.105
565.000, 0.107
565.100, 0.113
565.200, 0.116
565.300, 0.107
565.400, 0.102
565.500, 0.093
565.600, 0.100
565.700, 0.109
565.800, 0.108
565.900, 0.114
566.000, 0.111
566.100, 0.120
566.200, 0.105
566.300, 0.103
566.400, 0.114
566.500, 0.111
566.600, 0.104
566.700, 0.116
566.800, 0.115
566.900, 0.114
567.000, 0.112
567.100, 0.117
567.200, 0.094
567.300, 0.099
567.400, 0.105
567.500, 0.106
567.600, 0.119
567.700, 0.097
567.800, 0.102
567.900, 0.103
568.000, 0.098
568.100, 0.101
568.200, 0.105
568.300, 0.107
568.400, 0.102
568.500, 0.110
568.600, 0.100
568.700, 0.104
568.800, 0.106
568.900, 0.097
569.000, 0.097
569.100, 0.098
569.200, 0.099
569.300, 0.096
569.400, 0.096
569.500, 0.110
569.600, 0.112
569.700, 0.094
569.800, 0.099
569.900, 0.107
570.000, 0.101
570.100, 0.097
570.200, 0.098
570.300, 0.095
570.400, 0.104
570.500, 0.098
570.600, 0.111
570.700, 0.104
570.800, 0.107
570.900, 0.100
571.000, 0.098
571.100, 0.104
571.200, 0.101
571.300, 0.093
571.400, 0.099
571.500, 0.099
571.600, 0.102
571.700, 0.109
571.800, 0.106
571.900, 0.098
572.000, 0.099
572.100, 0.102
572.200, 0.103
572.300, 0.113
572.400, 0.099
572.500, 0.102
572.600, 0.102
572.700, 0.103
572.800, 0.103
572.900, 0.094
573.000, 0.103
573.100, 0.108
573.200, 0.107
573.300, 0.098
573.400, 0.090
573.500, 0.097
573.600, 0.099
573.700, 0.100
573.800, 0.098
573.900, 0.096
574.000, 0.099
574.100, 0.104
574.200, 0.106
574.300, 0.104
574.400, 0.110
574.500, 0.103
574.600, 0.104
574.700, 0.101
574.800, 0.102
574.900, 0.103
575.000, 0.097
575.100, 0.091
575.200, 0.096
575.300, 0.095
575.400, 0.099
575.500, 0.098
575.600, 0.099
575.700, 0.106
575.800, 0.107
575.900, 0.117
576.000, 0.115
576.100, 0.110
576.200, 0.099
576.300, 0.109
576.400, 0.112
576.500, 0.113
576.600, 0.107
576.700, 0.110
576.800, 0.100
576.900, 0.108
577.000, 0.115
577.100, 0.114
577.200, 0.114
577.300, 0.102
577.400, 0.098
577.500, 0.100
577.600, 0.119
577.700, 0.099
577.800, 0.094
577.900, 0.109
578.000, 0.101
578.100, 0.104
578.200, 0.104
578.300, 0.099
578.400, 0.102
578.500, 0.102
578.600, 0.102
578.700, 0.106
578.800, 0.105
578.900, 0.096
579.000, 0.090
579.100, 0.102
579.200, 0.102
579.300, 0.105
579.400, 0.104
579.500, 0.107
579.600, 0.121
579.700, 0.101
579.800, 0.114
579.900, 0.094
580.000, 0.107
580.100, 0.106
580.200, 0.099
580.300, 0.107
580.400, 0.107
580.500, 0.101
580.600, 0.115
580.700, 0.109
580.800, 0.111
580.900, 0.119
581.000, 0.109
581.100, 0.109
581.200, 0.107
581.300, 0.114
581.400, 0.107
581.500, 0.113
581.600, 0.104
581.700, 0.101
581.800, 0.103
581.900, 0.103
582.000, 0.098
582.100, 0.107
582.200, 0.103
582.300, 0.099
582.400, 0.092
582.500, 0.106
582.600, 0.098
582.700, 0.096
582.800, 0.103
582.900, 0.096
583.000, 0.092
583.100, 0.099
583.200, 0.107
583.300, 0.094
583.400, 0.096
583.500, 0.103
583.600, 0.089
583.700, 0.101
583.800, 0.093
583.900, 0.097
584.000, 0.093
584.100, 0.094
584.200, 0.095
584.300, 0.085
584.400, 0.105
584.500, 0.091
584.600, 0.096
584.700, 0.096
584.800, 0.096
584.900, 0.095
585.000, 0.100
585.100, 0.088
585.200, 0.100
585.300, 0.094
585.400, 0.092
585.500, 0.097
585.600, 0.095
585.700, 0.089
585.800, 0.083
585.900, 0.088
586.000, 0.079
586.100, 0.078
586.200, 0.088
586.300, 0.089
586.400, 0.088
586.500, 0.085
586.600, 0.080
586.700, 0.083
586.800, 0.084
586.900, 0.076
587.000, 0.087
587.100, 0.092
587.200, 0.089
587.300, 0.098
587.400, 0.103
587.500, 0.096
587.600, 0.103
587.700, 0.105
587.800, 0.098
587.900, 0.088
588.000, 0.093
588.100, 0.092
588.200, 0.098
588.300, 0.109
588.400, 0.098
588.500, 0.097
588.600, 0.103
588.700, 0.090
588.800, 0.099
588.900, 0.103
589.000, 0.092
589.100, 0.103
589.200, 0.099
589.300, 0.097
589.400, 0.103
589.500, 0.100
589.600, 0.085
589.700, 0.093
589.800, 0.098
589.900, 0.094
590.000, 0.089
590.100, 0.096
590.200, 0.091
590.300, 0.098
590.400, 0.087
590.500, 0.096
590.600, 0.090
590.700, 0.101
590.800, 0.092
590.900, 0.094
591.000, 0.101
591.100, 0.090
591.200, 0.089
591.300, 0.091
591.400, 0.090
591.500, 0.088
591.600, 0.096
591.700, 0.099
591.800, 0.103
591.900, 0.098
592.000, 0.104
592.100, 0.100
592.200, 0.104
592.300, 0.099
592.400, 0.096
592.500, 0.095
592.600, 0.099
592.700, 0.098
592.800, 0.091
592.900, 0.095
593.000, 0.089
593.100, 0.091
593.200, 0.091
593.300, 0.091
593.400, 0.087
593.500, 0.098
593.600, 0.093
593.700, 0.097
593.800, 0.098
593.900, 0.090
594.000, 0.088
594.100, 0.092
594.200, 0.094
594.300, 0.091
594.400, 0.101
594.500, 0.098
594.600, 0.105
594.700, 0.090
594.800, 0.092
594.900, 0.095
595.000, 0.110
595.100, 0.094
595.200, 0.095
595.300, 0.094
595.400, 0.094
595.500, 0.097
595.600, 0.089
595.700, 0.079
595.800, 0.091
595.900, 0.097
596.000, 0.090
596.100, 0.099
596.200, 0.090
596.300, 0.102
596.400, 0.094
596.500, 0.099
596.600, 0.095
596.700, 0.093
596.800, 0.095
596.900, 0.089
597.000, 0.094
597.100, 0.091
597.200, 0.087
597.300, 0.090
597.400, 0.093
597.500, 0.111
597.600, 0.108
597.700, 0.101
597.800, 0.087
597.900, 0.089
598.000, 0.091
598.100, 0.098
598.200, 0.106
598.300, 0.093
598.400, 0.102
598.500, 0.090
598.600, 0.096
598.700, 0.092
598.800, 0.100
598.900, 0.098
599.000, 0.091
599.100, 0.087
599.200, 0.098
599.300, 0.094
599.400, 0.093
599.500, 0.088
599.600, 0.094
599.700, 0.082
599.800, 0.089
599.900, 0.092
600.000, 0.090
600.100, 0.082
600.200, 0.091
600.300, 0.086
600.400, 0.091
600.500, 0.094
600.600, 0.105
600.700, 0.106
600.800, 0.100
600.900, 0.109
601.000, 0.099
601.100, 0.103
601.200, 0.093
601.300, 0.095
601.400, 0.100
601.500, 0.101
601.600, 0.100
601.700, 0.102
601.800, 0.106
601.900, 0.113
602.000, 0.107
602.100, 0.103
602.200, 0.094
602.300, 0.107
602.400, 0.107
602.500, 0.102
602.600, 0.103
602.700, 0.102
602.800, 0.108
602.900, 0.113
603.000, 0.093
603.100, 0.097
603.200, 0.088
603.300, 0.089
603.400, 0.101
603.500, 0.089
603.600, 0.086
603.700, 0.095
603.800, 0.102
603.900, 0.095
604.000, 0.092
604.100, 0.090
604.200, 0.109
604.300, 0.093
604.400, 0.091
604.500, 0.105
604.600, 0.100
604.700, 0.104
604.800, 0.099
604.900, 0.095
605.000, 0.096
605.100, 0.098
605.200, 0.090
605.300, 0.091
605.400, 0.093
605.500, 0.084
605.600, 0.089
605.700, 0.084
605.800, 0.093
605.900, 0.090
606.000, 0.083
606.100, 0.085
606.200, 0.094
606.300, 0.093
606.400, 0.092
606.500, 0.082
606.600, 0.084
606.700, 0.091
606.800, 0.097
606.900, 0.095
607.000, 0.092
607.100, 0.090
607.200, 0.085
607.300, 0.089
607.400, 0.086
607.500, 0.082
607.600, 0.089
607.700, 0.095
607.800, 0.093
607.900, 0.087
608.000, 0.094
608.100, 0.093
608.200, 0.098
608.300, 0.107
608.400, 0.092
608.500, 0.106
608.600, 0.097
608.700, 0.091
608.800, 0.083
608.900, 0.081
609.000, 0.084
609.100, 0.086
609.200, 0.083
609.300, 0.082
609.400, 0.087
609.500, 0.093
609.600, 0.100
609.700, 0.084
609.800, 0.085
609.900, 0.082
610.000, 0.091
610.100, 0.098
610.200, 0.087
610.300, 0.085
610.400, 0.082
610.500, 0.090
610.600, 0.090
610.700, 0.088
610.800, 0.086
610.900, 0.091
611.000, 0.086
611.100, 0.089
611.200, 0.091
611.300, 0.090
611.400, 0.090
611.500, 0.097
611.600, 0.105
611.700, 0.095
611.800, 0.096
611.900, 0.082
612.000, 0.091
612.100, 0.091
612.200, 0.094
612.300, 0.094
612.400, 0.095
612.500, 0.084
612.600, 0.094
612.700, 0.099
612.800, 0.093
612.900, 0.086
613.000, 0.093
613.100, 0.085
613.200, 0.088
613.300, 0.093
613.400, 0.093
613.500, 0.093
613.600, 0.091
613.700, 0.098
613.800, 0.088
613.900, 0.094
614.000, 0.092
614.100, 0.089
614.200, 0.083
614.300, 0.091
614.400, 0.094
614.500, 0.095
614.600, 0.102
614.700, 0.089
614.800, 0.096
614.900, 0.086
615.000, 0.094
615.100, 0.093
615.200, 0.089
615.300, 0.088
615.400, 0.094
615.500, 0.093
615.600, 0.095
615.700, 0.095
615.800, 0.098
615.900, 0.092
616.000, 0.094
616.100, 0.089
616.200, 0.092
616.300, 0.093
616.400, 0.099
616.500, 0.098
616.600, 0.087
616.700, 0.092
616.800, 0.091
616.900, 0.100
617.000, 0.100
617.100, 0.102
617.200, 0.101
617.300, 0.097
617.400, 0.104
617.500, 0.104
617.600, 0.098
617.700, 0.095
617.800, 0.094
617.900, 0.104
618.000, 0.092
618.100, 0.094
618.200, 0.088
618.300, 0.083
618.400, 0.091
618.500, 0.088
618.600, 0.097
618.700, 0.085
618.800, 0.083
618.900, 0.079
619.000, 0.081
619.100, 0.085
619.200, 0.081
619.300, 0.080
619.400, 0.079
619.500, 0.078
619.600, 0.085
619.700, 0.080
619.800, 0.074
619.900, 0.088
620.000, 0.088
620.100, 0.081
620.200, 0.072
620.300, 0.078
620.400, 0.091
620.500, 0.082
620.600, 0.085
620.700, 0.084
620.800, 0.077
620.900, 0.084
621.000, 0.080
621.100, 0.097
621.200, 0.099
621.300, 0.084
621.400, 0.085
621.500, 0.084
621.600, 0.089
621.700, 0.089
621.800, 0.096
621.900, 0.095
622.000, 0.094
622.100, 0.092
622.200, 0.089
622.300, 0.102
622.400, 0.094
622.500, 0.094
622.600, 0.090
622.700, 0.089
622.800, 0.093
622.900, 0.096
623.000, 0.101
623.100, 0.094
623.200, 0.097
623.300, 0.099
623.400, 0.091
623.500, 0.094
623.600, 0.089
623.700, 0.089
623.800, 0.086
623.900, 0.095
624.000, 0.091
624.100, 0.104
624.200, 0.098
624.300, 0.102
624.400, 0.085
624.500, 0.090
624.600, 0.099
624.700, 0.101
624.800, 0.098
624.900, 0.097
625.000, 0.106
625.100, 0.098
625.200, 0.108
625.300, 0.093
625.400, 0.094
625.500, 0.098
625.600, 0.106
625.700, 0.093
625.800, 0.096
625.900, 0.093
626.000, 0.090
626.100, 0.095
626.200, 0.095
626.300, 0.091
626.400, 0.088
626.500, 0.096
626.600, 0.098
626.700, 0.119
626.800, 0.106
626.900, 0.112
627.000, 0.108
627.100, 0.095
627.200, 0.098
627.300, 0.103
627.400, 0.090
627.500, 0.094
627.600, 0.090
627.700, 0.091
627.800, 0.090
627.900, 0.089
628.000, 0.100
628.100, 0.094
628.200, 0.093
628.300, 0.091
628.400, 0.099
628.500, 0.086
628.600, 0.088
628.700, 0.098
628.800, 0.096
628.900, 0.091
629.000, 0.095
629.100, 0.108
629.200, 0.103
629.300, 0.110
629.400, 0.112
629.500, 0.098
629.600, 0.101
629.700, 0.096
629.800, 0.102
629.900, 0.100
630.000, 0.101
630.100, 0.104
630.200, 0.108
630.300, 0.106
630.400, 0.102
630.500, 0.096
630.600, 0.097
630.700, 0.094
630.800, 0.102
630.900, 0.106
631.000, 0.105
631.100, 0.103
631.200, 0.099
631.300, 0.105
631.400, 0.100
631.500, 0.093
631.600, 0.092
631.700, 0.091
631.800, 0.085
631.900, 0.090
632.000, 0.082
632.100, 0.090
632.200, 0.092
632.300, 0.098
632.400, 0.094
632.500, 0.101
632.600, 0.100
632.700, 0.091
632.800, 0.089
632.900, 0.089
633.000, 0.096
633.100, 0.109
633.200, 0.089
633.300, 0.093
633.400, 0.094
633.500, 0.094
633.600, 0.099
633.700, 0.100
633.800, 0.096
633.900, 0.095
634.000, 0.101
634.100, 0.095
634.200, 0.092
634.300, 0.097
634.400, 0.093
634.500, 0.090
634.600, 0.091
634.700, 0.092
634.800, 0.084
634.900, 0.106
635.000, 0.100
635.100, 0.097
635.200, 0.105
635.300, 0.100
635.400, 0.094
635.500, 0.088
635.600, 0.098
635.700, 0.099
635.800, 0.096
635.900, 0.093
636.000, 0.093
636.100, 0.096
636.200, 0.100
636.300, 0.089
636.400, 0.095
636.500, 0.109
636.600, 0.103
636.700, 0.113
636.800, 0.096
636.900, 0.100
637.000, 0.098
637.100, 0.097
637.200, 0.099
637.300, 0.094
637.400, 0.088
637.500, 0.086
637.600, 0.091
637.700, 0.087
637.800, 0.092
637.900, 0.097
638.000, 0.092
638.100, 0.088
638.200, 0.094
638.300, 0.089
638.400, 0.099
638.500, 0.092
638.600, 0.083
638.700, 0.085
638.800, 0.094
638.900, 0.103
639.000, 0.100
639.100, 0.093
639.200, 0.099
639.300, 0.101
639.400, 0.094
639.500, 0.105
639.600, 0.107
639.700, 0.098
639.800, 0.098
639.900, 0.093
640.000, 0.098
640.100, 0.099
640.200, 0.093
640.300, 0.101
640.400, 0.093
640.500, 0.099
640.600, 0.098
640.700, 0.100
640.800, 0.101
640.900, 0.103
641.000, 0.087
641.100, 0.094
641.200, 0.091
641.300, 0.090
641.400, 0.096
641.500, 0.103
641.600, 0.102
641.700, 0.092
641.800, 0.094
641.900, 0.097
642.000, 0.094
642.100, 0.095
642.200, 0.093
642.300, 0.105
642.400, 0.091
642.500, 0.091
642.600, 0.096
642.700, 0.092
642.800, 0.095
642.900, 0.089
643.000, 0.097
643.100, 0.109
643.200, 0.103
643.300, 0.104
643.400, 0.095
643.500, 0.100
643.600, 0.096
643.700, 0.108
643.800, 0.096
643.900, 0.093
644.000, 0.102
644.100, 0.091
644.200, 0.096
644.300, 0.088
644.400, 0.092
644.500, 0.088
644.600, 0.087
644.700, 0.086
644.800, 0.091
644.900, 0.103
645.000, 0.088
645.100, 0.093
645.200, 0.095
645.300, 0.093
645.400, 0.089
645.500, 0.083
645.600, 0.081
645.700, 0.085
645.800, 0.097
645.900, 0.089
646.000, 0.091
646.100, 0.084
646.200, 0.083
646.300, 0.088
646.400, 0.086
646.500, 0.097
646.600, 0.105
646.700, 0.094
646.800, 0.093
646.900, 0.090
647.000, 0.090
647.100, 0.089
647.200, 0.093
647.300, 0.104
647.400, 0.103
647.500, 0.099
647.600, 0.092
647.700, 0.088
647.800, 0.097
647.900, 0.094
648.000, 0.082
648.100, 0.089
648.200, 0.091
648.300, 0.098
648.400, 0.084
648.500, 0.092
648.600, 0.091
648.700, 0.091
648.800, 0.090
648.900, 0.090
649.000, 0.112
649.100, 0.108
649.200, 0.104
649.300, 0.102
649.400, 0.110
649.500, 0.119
649.600, 0.108
649.700, 0.102
649.800, 0.098
649.900, 0.112
650.000, 0.100
650.100, 0.101
650.200, 0.117
650.300, 0.114
650.400, 0.108
650.500, 0.100
650.600, 0.105
650.700, 0.100
650.800, 0.099
650.900, 0.106
651.000, 0.108
651.100, 0.106
651.200, 0.107
651.300, 0.115
651.400, 0.116
651.500, 0.098
651.600, 0.103
651.700, 0.105
651.800, 0.096
651.900, 0.100
652.000, 0.095
652.100, 0.101
652.200, 0.095
652.300, 0.107
652.400, 0.098
652.500, 0.105
652.600, 0.094
652.700, 0.108
652.800, 0.112
652.900, 0.107
653.000, 0.099
653.100, 0.097
653.200, 0.097
653.300, 0.098
653.400, 0.107
653.500, 0.098
653.600, 0.101
653.700, 0.093
653.800, 0.097
653.900, 0.098
654.000, 0.099
654.100, 0.101
654.200, 0.098
654.300, 0.108
654.400, 0.107
654.500, 0.091
654.600, 0.098
654.700, 0.091
654.800, 0.089
654.900, 0.088
655.000, 0.093
655.100, 0.101
655.200, 0.104
655.300, 0.100
655.400, 0.098
655.500, 0.101
655.600, 0.105
655.700, 0.100
655.800, 0.098
655.900, 0.087
656.000, 0.086
656.100, 0.088
656.200, 0.093
656.300, 0.088
656.400, 0.086
656.500, 0.095
656.600, 0.091
656.700, 0.101
656.800, 0.089
656.900, 0.100
657.000, 0.092
657.100, 0.087
657.200, 0.096
657.300, 0.091
657.400, 0.090
657.500, 0.090
657.600, 0.096
657.700, 0.096
657.800, 0.099
657.900, 0.106
658.000, 0.100
658.100, 0.105
658.200, 0.099
658.300, 0.115
658.400, 0.090
658.500, 0.096
658.600, 0.098
658.700, 0.092
658.800, 0.088
658.900, 0.090
659.000, 0.090
659.100, 0.090
659.200, 0.103
659.300, 0.109
659.400, 0.107
659.500, 0.101
659.600, 0.090
659.700, 0.080
659.800, 0.076
659.900, 0.093
660.000, 0.088
660.100, 0.085
660.200, 0.081
660.300, 0.090
660.400, 0.077
660.500, 0.088
660.600, 0.079
660.700, 0.084
660.800, 0.086
660.900, 0.087
661.000, 0.087
661.100, 0.092
661.200, 0.087
661.300, 0.092
661.400, 0.089
661.500, 0.084
661.600, 0.092
661.700, 0.092
661.800, 0.085
661.900, 0.092
662.000, 0.087
662.100, 0.084
662.200, 0.090
662.300, 0.088
662.400, 0.088
662.500, 0.090
662.600, 0.092
662.700, 0.093
662.800, 0.086
662.900, 0.085
663.000, 0.090
663.100, 0.091
663.200, 0.094
663.300, 0.090
663.400, 0.084
663.500, 0.094
663.600, 0.088
663.700, 0.088
663.800, 0.088
663.900, 0.086
664.000, 0.092
664.100, 0.090
664.200, 0.089
664.300, 0.091
664.400, 0.091
664.500, 0.086
664.600, 0.087
664.700, 0.093
664.800, 0.085
664.900, 0.089
665.000, 0.089
665.100, 0.085
665.200, 0.088
665.300, 0.087
665.400, 0.087
665.500, 0.086
665.600, 0.098
665.700, 0.089
665.800, 0.096
665.900, 0.087
666.000, 0.087
666.100, 0.090
666.200, 0.093
666.300, 0.089
666.400, 0.084
666.500, 0.089
666.600, 0.083
666.700, 0.081
666.800, 0.081
666.900, 0.089
667.000, 0.092
667.100, 0.085
667.200, 0.082
667.300, 0.093
667.400, 0.089
667.500, 0.090
667.600, 0.091
667.700, 0.095
667.800, 0.092
667.900, 0.085
668.000, 0.084
668.100, 0.087
668.200, 0.086
668.300, 0.087
668.400, 0.082
668.500, 0.089
668.600, 0.096
668.700, 0.094
668.800, 0.093
668.900, 0.096
669.000, 0.090
669.100, 0.083
669.200, 0.091
669.300, 0.091
669.400, 0.091
669.500, 0.088
669.600, 0.093
669.700, 0.087
669.800, 0.084
669.900, 0.095
670.000, 0.093
670.100, 0.091
670.200, 0.088
670.300, 0.091
670.400, 0.084
670.500, 0.088
670.600, 0.091
670.700, 0.095
670.800, 0.089
670.900, 0.091
671.000, 0.093
671.100, 0.079
671.200, 0.080
671.300, 0.087
671.400, 0.090
671.500, 0.089
671.600, 0.089
671.700, 0.099
671.800, 0.091
671.900, 0.092
672.000, 0.093
672.100, 0.084
672.200, 0.092
672.300, 0.091
672.400, 0.086
672.500, 0.082
672.600, 0.091
672.700, 0.091
672.800, 0.095
672.900, 0.081
673.000, 0.089
673.100, 0.086
673.200, 0.094
673.300, 0.091
673.400, 0.084
673.500, 0.090
673.600, 0.095
673.700, 0.089
673.800, 0.089
673.900, 0.088
674.000, 0.086
674.100, 0.091
674.200, 0.093
674.300, 0.092
674.400, 0.090
674.500, 0.084
674.600, 0.085
674.700, 0.093
674.800, 0.092
674.900, 0.095
675.000, 0.093
675.100, 0.089
675.200, 0.088
675.300, 0.090
675.400, 0.086
675.500, 0.094
675.600, 0.083
675.700, 0.095
675.800, 0.090
675.900, 0.096
676.000, 0.090
676.100, 0.100
676.200, 0.095
676.300, 0.099
676.400, 0.091
676.500, 0.090
676.600, 0.093
676.700, 0.091
676.800, 0.089
676.900, 0.093
677.000, 0.094
677.100, 0.097
677.200, 0.101
677.300, 0.102
677.400, 0.091
677.500, 0.089
677.600, 0.088
677.700, 0.086
677.800, 0.089
677.900, 0.090
678.000, 0.084
678.100, 0.082
678.200, 0.084
678.300, 0.094
678.400, 0.090
678.500, 0.098
678.600, 0.094
678.700, 0.094
678.800, 0.085
678.900, 0.094
679.000, 0.093
679.100, 0.080
679.200, 0.097
679.300, 0.095
679.400, 0.091
679.500, 0.093
679.600, 0.088
679.700, 0.086
679.800, 0.097
679.900, 0.095
680.000, 0.093
680.100, 0.094
680.200, 0.088
680.300, 0.088
680.400, 0.086
680.500, 0.085
680.600, 0.094
680.700, 0.095
680.800, 0.093
680.900, 0.097
681.000, 0.097
681.100, 0.089
681.200, 0.088
681.300, 0.093
681.400, 0.098
681.500, 0.095
681.600, 0.080
681.700, 0.092
681.800, 0.089
681.900, 0.089
682.000, 0.096
682.100, 0.091
682.200, 0.094
682.300, 0.091
682.400, 0.091
682.500, 0.087
682.600, 0.090
682.700, 0.083
682.800, 0.090
682.900, 0.087
683.000, 0.087
683.100, 0.082
683.200, 0.091
683.300, 0.092
683.400, 0.080
683.500, 0.082
683.600, 0.090
683.700, 0.093
683.800, 0.095
683.900, 0.084
684.000, 0.092
684.100, 0.088
684.200, 0.092
684.300, 0.097
684.400, 0.094
684.500, 0.088
684.600, 0.088
684.700, 0.087
684.800, 0.089
684.900, 0.084
685.000, 0.087
685.100, 0.087
685.200, 0.083
685.300, 0.088
685.400, 0.083
685.500, 0.092
685.600, 0.086
685.700, 0.086
685.800, 0.090
685.900, 0.083
686.000, 0.089
686.100, 0.082
686.200, 0.084
686.300, 0.088
686.400, 0.095
686.500, 0.086
686.600, 0.088
686.700, 0.101
686.800, 0.095
686.900, 0.095
687.000, 0.092
687.100, 0.095
687.200, 0.088
687.300, 0.089
687.400, 0.090
687.500, 0.089
687.600, 0.095
687.700, 0.098
687.800, 0.104
687.900, 0.095
688.000, 0.086
688.100, 0.100
688.200, 0.100
688.300, 0.083
688.400, 0.085
688.500, 0.084
688.600, 0.093
688.700, 0.093
688.800, 0.091
688.900, 0.084
689.000, 0.084
689.100, 0.086
689.200, 0.085
689.300, 0.101
689.400, 0.088
689.500, 0.091
689.600, 0.089
689.700, 0.092
689.800, 0.092
689.900, 0.095
690.000, 0.091
690.100, 0.087
690.200, 0.087
690.300, 0.093
690.400, 0.097
690.500, 0.088
690.600, 0.099
690.700, 0.096
690.800, 0.099
690.900, 0.099
691.000, 0.086
691.100, 0.090
691.200, 0.091
691.300, 0.093
691.400, 0.094
691.500, 0.104
691.600, 0.098
691.700, 0.103
691.800, 0.092
691.900, 0.103
692.000, 0.089
692.100, 0.098
692.200, 0.101
692.300, 0.099
692.400, 0.098
692.500, 0.099
692.600, 0.085
692.700, 0.090
692.800, 0.087
692.900, 0.094
693.000, 0.098
693.100, 0.085
693.200, 0.092
693.300, 0.092
693.400, 0.091
693.500, 0.096
693.600, 0.092
693.700, 0.088
693.800, 0.092
693.900, 0.089
694.000, 0.084
694.100, 0.089
694.200, 0.088
694.300, 0.090
694.400, 0.089
694.500, 0.084
694.600, 0.086
694.700, 0.083
694.800, 0.078
694.900, 0.090
695.000, 0.095
695.100, 0.093
695.200, 0.092
695.300, 0.089
695.400, 0.096
695.500, 0.086
695.600, 0.091
695.700, 0.091
695.800, 0.085
695.900, 0.089
696.000, 0.091
696.100, 0.089
696.200, 0.090
696.300, 0.084
696.400, 0.088
696.500, 0.087
696.600, 0.095
696.700, 0.087
696.800, 0.095
696.900, 0.098
697.000, 0.093
697.100, 0.091
697.200, 0.098
697.300, 0.091
697.400, 0.096
697.500, 0.087
697.600, 0.091
697.700, 0.084
697.800, 0.082
697.900, 0.088
698.000, 0.095
698.100, 0.090
698.200, 0.087
698.300, 0.083
698.400, 0.085
698.500, 0.096
698.600, 0.096
698.700, 0.096
698.800, 0.102
698.900, 0.098
699.000, 0.091
699.100, 0.094
699.200, 0.095
699.300, 0.097
699.400, 0.089
699.500, 0.087
699.600, 0.094
699.700, 0.089
699.800, 0.084
699.900, 0.087
700.000, 0.089
700.100, 0.093
700.200, 0.088
700.300, 0.086
700.400, 0.093
700.500, 0.088
700.600, 0.090
700.700, 0.087
700.800, 0.086
700.900, 0.096
701.000, 0.093
701.100, 0.091
701.200, 0.091
701.300, 0.093
701.400, 0.099
701.500, 0.092
701.600, 0.096
701.700, 0.089
701.800, 0.097
701.900, 0.092
702.000, 0.091
702.100, 0.081
702.200, 0.086
702.300, 0.087
702.400, 0.093
702.500, 0.091
702.600, 0.090
702.700, 0.083
702.800, 0.089
702.900, 0.083
703.000, 0.093
703.100, 0.095
703.200, 0.095
703.300, 0.086
703.400, 0.090
703.500, 0.088
703.600, 0.083
703.700, 0.085
703.800, 0.087
703.900, 0.079
704.000, 0.093
704.100, 0.086
704.200, 0.091
704.300, 0.087
704.400, 0.086
704.500, 0.089
704.600, 0.093
704.700, 0.099
704.800, 0.099
704.900, 0.089
705.000, 0.091
705.100, 0.091
705.200, 0.103
705.300, 0.096
705.400, 0.096
705.500, 0.090
705.600, 0.094
705.700, 0.093
705.800, 0.097
705.900, 0.098
706.000, 0.101
706.100, 0.092
706.200, 0.096
706.300, 0.093
706.400, 0.082
706.500, 0.095
706.600, 0.092
706.700, 0.099
706.800, 0.102
706.900, 0.094
707.000, 0.094
707.100, 0.090
707.200, 0.094
707.300, 0.096
707.400, 0.087
707.500, 0.086
707.600, 0.104
707.700, 0.098
707.800, 0.089
707.900, 0.093
708.000, 0.090
708.100, 0.094
708.200, 0.091
708.300, 0.089
708.400, 0.088
708.500, 0.090
708.600, 0.097
708.700, 0.092
708.800, 0.090
708.900, 0.092
709.000, 0.101
709.100, 0.094
709.200, 0.091
709.300, 0.090
709.400, 0.093
709.500, 0.101
709.600, 0.099
709.700, 0.092
709.800, 0.090
709.900, 0.089
710.000, 0.093
710.100, 0.093
710.200, 0.088
710.300, 0.094
710.400, 0.099
710.500, 0.093
710.600, 0.091
710.700, 0.096
710.800, 0.094
710.900, 0.091
711.000, 0.094
711.100, 0.095
711.200, 0.096
711.300, 0.085
711.400, 0.083
711.500, 0.089
711.600, 0.096
711.700, 0.090
711.800, 0.098
711.900, 0.095
712.000, 0.090
712.100, 0.098
712.200, 0.096
712.300, 0.098
712.400, 0.091
712.500, 0.092
712.600, 0.090
712.700, 0.094
712.800, 0.097
712.900, 0.100
713.000, 0.096
713.100, 0.096
713.200, 0.106
713.300, 0.092
713.400, 0.087
713.500, 0.087
713.600, 0.099
713.700, 0.094
713.800, 0.097
713.900, 0.093
714.000, 0.095
714.100, 0.098
714.200, 0.105
714.300, 0.095
714.400, 0.094
714.500, 0.093
714.600, 0.091
714.700, 0.100
714.800, 0.094
714.900, 0.100
715.000, 0.085
715.100, 0.091
715.200, 0.087
715.300, 0.090
715.400, 0.094
715.500, 0.093
715.600, 0.087
715.700, 0.092
715.800, 0.080
715.900, 0.086
716.000, 0.103
716.100, 0.105
716.200, 0.103
716.300, 0.103
716.400, 0.093
716.500, 0.092
716.600, 0.089
716.700, 0.091
716.800, 0.086
716.900, 0.086
717.000, 0.095
717.100, 0.087
717.200, 0.092
717.300, 0.102
717.400, 0.101
717.500, 0.090
717.600, 0.097
717.700, 0.103
717.800, 0.101
717.900, 0.101
718.000, 0.101
718.100, 0.094
718.200, 0.100
718.300, 0.090
718.400, 0.091
718.500, 0.085
718.600, 0.095
718.700, 0.091
718.800, 0.094
718.900, 0.089
719.000, 0.091
719.100, 0.088
719.200, 0.094
719.300, 0.085
719.400, 0.095
719.500, 0.089
719.600, 0.089
719.700, 0.089
719.800, 0.084
719.900, 0.093
720.000, 0.084
720.100, 0.088
720.200, 0.084
720.300, 0.100
720.400, 0.084
720.500, 0.094
720.600, 0.092
720.700, 0.093
720.800, 0.090
720.900, 0.090
721.000, 0.088
721.100, 0.089
721.200, 0.092
721.300, 0.089
721.400, 0.089
721.500, 0.085
721.600, 0.092
721.700, 0.098
721.800, 0.095
721.900, 0.093
722.000, 0.096
722.100, 0.102
722.200, 0.097
722.300, 0.103
722.400, 0.100
722.500, 0.100
722.600, 0.107
722.700, 0.094
722.800, 0.094
722.900, 0.089
723.000, 0.102
723.100, 0.105
723.200, 0.099
723.300, 0.115
723.400, 0.101
723.500, 0.094
723.600, 0.099
723.700, 0.104
723.800, 0.093
723.900, 0.099
724.000, 0.098
724.100, 0.099
724.200, 0.097
724.300, 0.086
724.400, 0.092
724.500, 0.105
724.600, 0.092
724.700, 0.095
724.800, 0.099
724.900, 0.091
725.000, 0.101
725.100, 0.098
725.200, 0.098
725.300, 0.088
725.400, 0.096
725.500, 0.104
725.600, 0.099
725.700, 0.096
725.800, 0.090
725.900, 0.103
726.000, 0.099
726.100, 0.089
726.200, 0.092
726.300, 0.087
726.400, 0.087
726.500, 0.105
726.600, 0.102
726.700, 0.093
726.800, 0.093
726.900, 0.105
727.000, 0.098
727.100, 0.104
727.200, 0.094
727.300, 0.099
727.400, 0.102
727.500, 0.100
727.600, 0.094
727.700, 0.097
727.800, 0.091
727.900, 0.090
728.000, 0.090
728.100, 0.090
728.200, 0.090
728.300, 0.095
728.400, 0.093
728.500, 0.092
728.600, 0.088
728.700, 0.098
728.800, 0.094
728.900, 0.093
729.000, 0.094
729.100, 0.099
729.200, 0.095
729.300, 0.096
729.400, 0.086
729.500, 0.095
729.600, 0.089
729.700, 0.093
729.800, 0.088
729.900, 0.100
730.000, 0.096
730.100, 0.097
730.200, 0.102
730.300, 0.094
730.400, 0.093
730.500, 0.103
730.600, 0.103
730.700, 0.106
730.800, 0.102
730.900, 0.095
731.000, 0.099
731.100, 0.085
731.200, 0.085
731.300, 0.103
731.400, 0.093
731.500, 0.090
731.600, 0.098
731.700, 0.093
731.800, 0.103
731.900, 0.087
732.000, 0.104
732.100, 0.101
732.200, 0.099
732.300, 0.091
732.400, 0.106
732.500, 0.094
732.600, 0.086
732.700, 0.089
732.800, 0.106
732.900, 0.100
733.000, 0.102
733.100, 0.097
733.200, 0.099
733.300, 0.090
733.400, 0.095
733.500, 0.100
733.600, 0.099
733.700, 0.093
733.800, 0.094
733.900, 0.089
734.000, 0.087
734.100, 0.090
734.200, 0.091
734.300, 0.096
734.400, 0.090
734.500, 0.092
734.600, 0.087
734.700, 0.096
734.800, 0.095
734.900, 0.090
735.000, 0.091
735.100, 0.092
735.200, 0.093
735.300, 0.096
735.400, 0.097
735.500, 0.099
735.600, 0.095
735.700, 0.094
735.800, 0.100
735.900, 0.098
736.000, 0.095
736.100, 0.090
736.200, 0.098
736.300, 0.093
736.400, 0.087
736.500, 0.085
736.600, 0.096
736.700, 0.095
736.800, 0.101
736.900, 0.088
737.000, 0.103
737.100, 0.089
737.200, 0.082
737.300, 0.098
737.400, 0.080
737.500, 0.086
737.600, 0.087
737.700, 0.088
737.800, 0.089
737.900, 0.091
738.000, 0.084
738.100, 0.091
738.200, 0.095
738.300, 0.085
738.400, 0.089
738.500, 0.087
738.600, 0.082
738.700, 0.088
738.800, 0.086
738.900, 0.097
739.000, 0.092
739.100, 0.087
739.200, 0.088
739.300, 0.084
739.400, 0.091
739.500, 0.081
739.600, 0.098
739.700, 0.089
739.800, 0.089
739.900, 0.085
740.000, 0.090
740.100, 0.088
740.200, 0.082
740.300, 0.091
740.400, 0.089
740.500, 0.082
740.600, 0.097
740.700, 0.084
740.800, 0.080
740.900, 0.087
741.000, 0.087
741.100, 0.088
741.200, 0.081
741.300, 0.082
741.400, 0.085
741.500, 0.088
741.600, 0.088
741.700, 0.088
741.800, 0.081
741.900, 0.091
742.000, 0.096
742.100, 0.087
742.200, 0.087
742.300, 0.087
742.400, 0.094
742.500, 0.088
742.600, 0.090
742.700, 0.091
742.800, 0.088
742.900, 0.089
743.000, 0.088
743.100, 0.083
743.200, 0.078
743.300, 0.088
743.400, 0.092
743.500, 0.085
743.600, 0.079
743.700, 0.081
743.800, 0.082
743.900, 0.075
744.000, 0.085
744.100, 0.092
744.200, 0.096
744.300, 0.086
744.400, 0.089
744.500, 0.097
744.600, 0.097
744.700, 0.098
744.800, 0.102
744.900, 0.094
745.000, 0.107
745.100, 0.101
745.200, 0.092
745.300, 0.095
745.400, 0.096
745.500, 0.100
745.600, 0.087
745.700, 0.089
745.800, 0.094
745.900, 0.096
746.000, 0.096
746.100, 0.093
746.200, 0.099
746.300, 0.084
746.400, 0.089
746.500, 0.089
746.600, 0.098
746.700, 0.092
746.800, 0.091
746.900, 0.090
747.000, 0.088
747.100, 0.085
747.200, 0.090
747.300, 0.090
747.400, 0.092
747.500, 0.089
747.600, 0.096
747.700, 0.092
747.800, 0.092
747.900, 0.084
748.000, 0.087
748.100, 0.085
748.200, 0.089
748.300, 0.089
748.400, 0.081
748.500, 0.089
748.600, 0.098
748.700, 0.101
748.800, 0.088
748.900, 0.089
749.000, 0.091
749.100, 0.097
749.200, 0.087
749.300, 0.081
749.400, 0.096
749.500, 0.101
749.600, 0.089
749.700, 0.094
749.800, 0.084
749.900, 0.095
750.000, 0.090
750.100, 0.090
750.200, 0.091
750.300, 0.088
750.400, 0.095
750.500, 0.085
750.600, 0.086
750.700, 0.092
750.800, 0.098
750.900, 0.093
751.000, 0.090
751.100, 0.089
751.200, 0.097
751.300, 0.094
751.400, 0.089
751.500, 0.094
751.600, 0.101
751.700, 0.100
751.800, 0.098
751.900, 0.098
752.000, 0.096
752.100, 0.091
752.200, 0.097
752.300, 0.095
752.400, 0.088
752.500, 0.090
752.600, 0.091
752.700, 0.084
752.800, 0.095
752.900, 0.090
753.000, 0.096
753.100, 0.092
753.200, 0.095
753.300, 0.088
753.400, 0.097
753.500, 0.103
753.600, 0.102
753.700, 0.096
753.800, 0.098
753.900, 0.087
754.000, 0.084
754.100, 0.084
754.200, 0.098
754.300, 0.091
754.400, 0.087
754.500, 0.091
754.600, 0.089
754.700, 0.086
754.800, 0.086
754.900, 0.097
755.000, 0.091
755.100, 0.089
755.200, 0.083
755.300, 0.092
755.400, 0.086
755.500, 0.090
755.600, 0.088
755.700, 0.084
755.800, 0.088
755.900, 0.092
756.000, 0.086
756.100, 0.090
756.200, 0.093
756.300, 0.088
756.400, 0.096
756.500, 0.093
756.600, 0.093
756.700, 0.091
756.800, 0.092
756.900, 0.095
757.000, 0.091
757.100, 0.095
757.200, 0.097
757.300, 0.096
757.400, 0.095
757.500, 0.095
757.600, 0.081
757.700, 0.095
757.800, 0.095
757.900, 0.092
758.000, 0.080
758.100, 0.086
758.200, 0.090
758.300, 0.091
758.400, 0.088
758.500, 0.080
758.600, 0.085
758.700, 0.090
758.800, 0.100
758.900, 0.101
759.000, 0.102
759.100, 0.097
759.200, 0.097
759.300, 0.095
759.400, 0.098
759.500, 0.092
759.600, 0.095
759.700, 0.104
759.800, 0.096
759.900, 0.098
760.000, 0.097
760.100, 0.087
760.200, 0.091
760.300, 0.078
760.400, 0.090
760.500, 0.085
760.600, 0.091
760.700, 0.093
760.800, 0.100
760.900, 0.107
761.000, 0.098
761.100, 0.090
761.200, 0.084
761.300, 0.082
761.400, 0.085
761.500, 0.090
761.600, 0.092
761.700, 0.088
761.800, 0.094
761.900, 0.096
762.000, 0.092
762.100, 0.080
762.200, 0.087
762.300, 0.087
762.400, 0.093
762.500, 0.083
762.600, 0.091
762.700, 0.088
762.800, 0.079
762.900, 0.088
763.000, 0.106
763.100, 0.106
763.200, 0.116
763.300, 0.098
763.400, 0.105
763.500, 0.097
763.600, 0.103
763.700, 0.096
763.800, 0.096
763.900, 0.091
764.000, 0.086
764.100, 0.089
764.200, 0.096
764.300, 0.102
764.400, 0.099
764.500, 0.091
764.600, 0.092
764.700, 0.087
764.800, 0.086
764.900, 0.089
765.000, 0.087
765.100, 0.095
765.200, 0.091
765.300, 0.090
765.400, 0.094
765.500, 0.097
765.600, 0.089
765.700, 0.089
765.800, 0.095
765.900, 0.088
766.000, 0.095
766.100, 0.092
766.200, 0.087
766.300, 0.080
766.400, 0.087
766.500, 0.093
766.600, 0.093
766.700, 0.090
766.800, 0.092
766.900, 0.086
767.000, 0.082
767.100, 0.092
767.200, 0.090
767.300, 0.084
767.400, 0.094
767.500, 0.088
767.600, 0.096
767.700, 0.095
767.800, 0.085
767.900, 0.095
768.000, 0.095
768.100, 0.097
768.200, 0.093
768.300, 0.093
768.400, 0.088
768.500, 0.086
768.600, 0.094
768.700, 0.098
768.800, 0.096
768.900, 0.084
769.000, 0.087
769.100, 0.089
769.200, 0.087
769.300, 0.088
769.400, 0.090
769.500, 0.088
769.600, 0.092
769.700, 0.099
769.800, 0.097
769.900, 0.086
770.000, 0.081
770.100, 0.090
770.200, 0.097
770.300, 0.092
770.400, 0.085
770.500, 0.089
770.600, 0.086
770.700, 0.099
770.800, 0.094
770.900, 0.090
771.000, 0.095
771.100, 0.096
771.200, 0.085
771.300, 0.086
771.400, 0.086
771.500, 0.091
771.600, 0.088
771.700, 0.087
771.800, 0.091
771.900, 0.092
772.000, 0.090
772.100, 0.086
772.200, 0.084
772.300, 0.088
772.400, 0.090
772.500, 0.093
772.600, 0.084
772.700, 0.093
772.800, 0.096
772.900, 0.093
773.000, 0.112
773.100, 0.099
773.200, 0.102
773.300, 0.096
773.400, 0.093
773.500, 0.086
773.600, 0.089
773.700, 0.083
773.800, 0.106
773.900, 0.087
774.000, 0.088
774.100, 0.093
774.200, 0.083
774.300, 0.101
774.400, 0.087
774.500, 0.095
774.600, 0.088
774.700, 0.086
774.800, 0.093
774.900, 0.097
775.000, 0.092
775.100, 0.092
775.200, 0.093
775.300, 0.095
775.400, 0.092
775.500, 0.096
775.600, 0.087
775.700, 0.091
775.800, 0.092
775.900, 0.090
776.000, 0.092
776.100, 0.089
776.200, 0.089
776.300, 0.094
776.400, 0.094
776.500, 0.089
776.600, 0.090
776.700, 0.090
776.800, 0.090
776.900, 0.096
777.000, 0.091
777.100, 0.096
777.200, 0.103
777.300, 0.090
777.400, 0.094
777.500, 0.100
777.600, 0.102
777.700, 0.090
777.800, 0.085
777.900, 0.089
778.000, 0.084
778.100, 0.088
778.200, 0.080
778.300, 0.096
778.400, 0.087
778.500, 0.093
778.600, 0.089
778.700, 0.082
778.800, 0.085
778.900, 0.093
779.000, 0.088
779.100, 0.082
779.200, 0.086
779.300, 0.081
779.400, 0.097
779.500, 0.087
779.600, 0.100
779.700, 0.084
779.800, 0.086
779.900, 0.093
780.000, 0.092
780.100, 0.081
780.200, 0.084
780.300, 0.087
780.400, 0.089
780.500, 0.083
780.600, 0.086
780.700, 0.093
780.800, 0.093
780.900, 0.084
781.000, 0.102
781.100, 0.091
781.200, 0.096
781.300, 0.093
781.400, 0.084
781.500, 0.095
781.600, 0.097
781.700, 0.086
781.800, 0.085
781.900, 0.095
782.000, 0.093
782.100, 0.090
782.200, 0.088
782.300, 0.091
782.400, 0.082
782.500, 0.086
782.600, 0.092
782.700, 0.098
782.800, 0.096
782.900, 0.091
783.000, 0.092
783.100, 0.097
783.200, 0.092
783.300, 0.089
783.400, 0.080
783.500, 0.089
783.600, 0.087
783.700, 0.086
783.800, 0.086
783.900, 0.088
784.000, 0.085
784.100, 0.089
784.200, 0.086
784.300, 0.101
784.400, 0.088
784.500, 0.086
784.600, 0.095
784.700, 0.090
784.800, 0.086
784.900, 0.087
785.000, 0.097
785.100, 0.084
785.200, 0.076
785.300, 0.086
785.400, 0.081
785.500, 0.096
785.600, 0.079
785.700, 0.084
785.800, 0.087
785.900, 0.087
786.000, 0.089
786.100, 0.085
786.200, 0.081
786.300, 0.091
786.400, 0.086
786.500, 0.095
786.600, 0.086
786.700, 0.098
786.800, 0.095
786.900, 0.105
787.000, 0.102
787.100, 0.102
787.200, 0.104
787.300, 0.096
787.400, 0.089
787.500, 0.083
787.600, 0.082
787.700, 0.091
787.800, 0.088
787.900, 0.085
788.000, 0.100
788.100, 0.084
788.200, 0.079
788.300, 0.097
788.400, 0.088
788.500, 0.090
788.600, 0.088
788.700, 0.099
788.800, 0.094
788.900, 0.099
789.000, 0.098
789.100, 0.097
789.200, 0.088
789.300, 0.096
789.400, 0.097
789.500, 0.096
789.600, 0.093
789.700, 0.083
789.800, 0.097
789.900, 0.094
790.000, 0.090
790.100, 0.085
790.200, 0.090
790.300, 0.091
790.400, 0.087
790.500, 0.085
790.600, 0.084
790.700, 0.084
790.800, 0.094
790.900, 0.085
791.000, 0.083
791.100, 0.090
791.200, 0.087
791.300, 0.084
791.400, 0.086
791.500, 0.082
791.600, 0.076
791.700, 0.077
791.800, 0.090
791.900, 0.099
792.000, 0.086
792.100, 0.091
792.200, 0.080
792.300, 0.081
792.400, 0.096
792.500, 0.096
792.600, 0.088
792.700, 0.091
792.800, 0.089
792.900, 0.093
793.000, 0.078
793.100, 0.088
793.200, 0.086
793.300, 0.089
793.400, 0.083
793.500, 0.089
793.600, 0.087
793.700, 0.089
793.800, 0.087
793.900, 0.086
794.000, 0.088
794.100, 0.088
794.200, 0.084
794.300, 0.090
794.400, 0.086
794.500, 0.088
794.600, 0.092
794.700, 0.090
794.800, 0.097
794.900, 0.087
795.000, 0.089
795.100, 0.090
795.200, 0.096
795.300, 0.093
795.400, 0.084
795.500, 0.100
795.600, 0.098
795.700, 0.086
795.800, 0.087
795.900, 0.087
796.000, 0.089
796.100, 0.087
796.200, 0.096
796.300, 0.087
796.400, 0.089
796.500, 0.084
796.600, 0.088
796.700, 0.089
796.800, 0.085
796.900, 0.082
797.000, 0.088
797.100, 0.085
797.200, 0.099
797.300, 0.096
797.400, 0.080
797.500, 0.085
797.600, 0.094
797.700, 0.088
797.800, 0.087
797.900, 0.085
798.000, 0.094
798.100, 0.097
798.200, 0.090
798.300, 0.087
798.400, 0.098
798.500, 0.095
798.600, 0.099
798.700, 0.098
798.800, 0.091
798.900, 0.096
799.000, 0.099
799.100, 0.100
799.200, 0.102
799.300, 0.101
799.400, 0.096
799.500, 0.095
799.600, 0.087
799.700, 0.087
799.800, 0.095
799.900, 0.089
800.000, 0.089
800.100, 0.082
800.200, 0.088
800.300, 0.085
800.400, 0.080
800.500, 0.084
800.600, 0.078
800.700, 0.088
800.800, 0.082
800.900, 0.085
801.000, 0.088
801.100, 0.093
801.200, 0.078
801.300, 0.084
801.400, 0.093
801.500, 0.085
801.600, 0.088
801.700, 0.087
801.800, 0.096
801.900, 0.087
802.000, 0.086
802.100, 0.083
802.200, 0.096
802.300, 0.092
802.400, 0.097
802.500, 0.089
802.600, 0.095
802.700, 0.090
802.800, 0.092
802.900, 0.084
803.000, 0.088
803.100, 0.091
803.200, 0.084
803.300, 0.095
803.400, 0.093
803.500, 0.096
803.600, 0.096
803.700, 0.090
803.800, 0.086
803.900, 0.084
804.000, 0.086
804.100, 0.106
804.200, 0.099
804.300, 0.098
804.400, 0.100
804.500, 0.098
804.600, 0.098
804.700, 0.085
804.800, 0.096
804.900, 0.086
805.000, 0.101
805.100, 0.097
805.200, 0.091
805.300, 0.083
805.400, 0.091
805.500, 0.085
805.600, 0.085
805.700, 0.083
805.800, 0.089
805.900, 0.088
806.000, 0.095
806.100, 0.093
806.200, 0.088
806.300, 0.092
806.400, 0.095
806.500, 0.093
806.600, 0.090
806.700, 0.099
806.800, 0.096
806.900, 0.084
807.000, 0.085
807.100, 0.085
807.200, 0.083
807.300, 0.087
807.400, 0.091
807.500, 0.088
807.600, 0.079
807.700, 0.082
807.800, 0.084
807.900, 0.089
808.000, 0.085
808.100, 0.087
808.200, 0.087
808.300, 0.084
808.400, 0.094
808.500, 0.087
808.600, 0.082
808.700, 0.095
808.800, 0.097
808.900, 0.089
809.000, 0.099
809.100, 0.091
809.200, 0.098
809.300, 0.094
809.400, 0.100
809.500, 0.094
809.600, 0.089
809.700, 0.092
809.800, 0.085
809.900, 0.089
810.000, 0.094
810.100, 0.102
810.200, 0.094
810.300, 0.100
810.400, 0.108
810.500, 0.097
810.600, 0.093
810.700, 0.089
810.800, 0.088
810.900, 0.084
811.000, 0.096
811.100, 0.099
811.200, 0.096
811.300, 0.097
811.400, 0.092
811.500, 0.105
811.600, 0.098
811.700, 0.099
811.800, 0.099
811.900, 0.095
812.000, 0.093
812.100, 0.092
812.200, 0.093
812.300, 0.093
812.400, 0.099
812.500, 0.093
812.600, 0.091
812.700, 0.096
812.800, 0.098
812.900, 0.104
813.000, 0.116
813.100, 0.098
813.200, 0.093
813.300, 0.097
813.400, 0.090
813.500, 0.086
813.600, 0.100
813.700, 0.094
813.800, 0.093
813.900, 0.089
814.000, 0.085
814.100, 0.085
814.200, 0.078
814.300, 0.087
814.400, 0.086
814.500, 0.094
814.600, 0.091
814.700, 0.086
814.800, 0.092
814.900, 0.092
815.000, 0.088
815.100, 0.089
815.200, 0.092
815.300, 0.096
815.400, 0.091
815.500, 0.098
815.600, 0.100
815.700, 0.088
815.800, 0.093
815.900, 0.091
816.000, 0.090
816.100, 0.100
816.200, 0.101
816.300, 0.098
816.400, 0.095
816.500, 0.102
816.600, 0.089
816.700, 0.092
816.800, 0.087
816.900, 0.085
817.000, 0.082
817.100, 0.088
817.200, 0.083
817.300, 0.096
817.400, 0.089
817.500, 0.086
817.600, 0.089
817.700, 0.079
817.800, 0.094
817.900, 0.101
818.000, 0.094
818.100, 0.098
818.200, 0.096
818.300, 0.084
818.400, 0.097
818.500, 0.095
818.600, 0.091
818.700, 0.096
818.800, 0.097
818.900, 0.092
819.000, 0.094
819.100, 0.107
819.200, 0.094
819.300, 0.093
819.400, 0.098
819.500, 0.103
819.600, 0.104
819.700, 0.102
819.800, 0.100
819.900, 0.089
820.000, 0.094
820.100, 0.090
820.200, 0.089
820.300, 0.086
820.400, 0.083
820.500, 0.093
820.600, 0.087
820.700, 0.092
820.800, 0.092
820.900, 0.094
821.000, 0.090
821.100, 0.086
821.200, 0.086
821.300, 0.094
821.400, 0.092
821.500, 0.089
821.600, 0.097
821.700, 0.093
821.800, 0.092
821.900, 0.093
822.000, 0.085
822.100, 0.094
822.200, 0.095
822.300, 0.088
822.400, 0.089
822.500, 0.096
822.600, 0.095
822.700, 0.096
822.800, 0.093
822.900, 0.093
823.000, 0.102
823.100, 0.104
823.200, 0.094
823.300, 0.097
823.400, 0.089
823.500, 0.093
823.600, 0.101
823.700, 0.096
823.800, 0.088
823.900, 0.094
824.000, 0.097
824.100, 0.091
824.200, 0.095
824.300, 0.101
824.400, 0.096
824.500, 0.097
824.600, 0.092
824.700, 0.087
824.800, 0.094
824.900, 0.088
825.000, 0.088
825.100, 0.100
825.200, 0.101
825.300, 0.093
825.400, 0.087
825.500, 0.091
825.600, 0.087
825.700, 0.099
825.800, 0.085
825.900, 0.084
826.000, 0.089
826.100, 0.089
826.200, 0.104
826.300, 0.091
826.400, 0.090
826.500, 0.089
826.600, 0.092
826.700, 0.087
826.800, 0.092
826.900, 0.095
827.000, 0.082
827.100, 0.085
827.200, 0.095
827.300, 0.089
827.400, 0.091
827.500, 0.088
827.600, 0.085
827.700, 0.084
827.800, 0.096
827.900, 0.091
828.000, 0.097
828.100, 0.084
828.200, 0.089
828.300, 0.084
828.400, 0.091
828.500, 0.087
828.600, 0.097
828.700, 0.087
828.800, 0.083
828.900, 0.090
829.000, 0.081
829.100, 0.084
829.200, 0.085
829.300, 0.085
829.400, 0.085
829.500, 0.095
829.600, 0.089
829.700, 0.094
829.800, 0.092
829.900, 0.092
830.000, 0.088
830.100, 0.084
830.200, 0.082
830.300, 0.083
830.400, 0.087
830.500, 0.086
830.600, 0.085
830.700, 0.085
830.800, 0.088
830.900, 0.086
831.000, 0.095
831.100, 0.097
831.200, 0.092
831.300, 0.086
831.400, 0.083
831.500, 0.091
831.600, 0.090
831.700, 0.089
831.800, 0.093
831.900, 0.091
832.000, 0.084
832.100, 0.084
832.200, 0.085
832.300, 0.088
832.400, 0.086
832.500, 0.095
832.600, 0.091
832.700, 0.086
832.800, 0.091
832.900, 0.090
833.000, 0.091
833.100, 0.073
833.200, 0.088
833.300, 0.092
833.400, 0.093
833.500, 0.090
833.600, 0.089
833.700, 0.092
833.800, 0.085
833.900, 0.093
834.000, 0.094
834.100, 0.085
834.200, 0.089
834.300, 0.091
834.400, 0.092
834.500, 0.093
834.600, 0.094
834.700, 0.091
834.800, 0.093
834.900, 0.086
835.000, 0.089
835.100, 0.088
835.200, 0.084
835.300, 0.092
835.400, 0.084
835.500, 0.091
835.600, 0.106
835.700, 0.095
835.800, 0.086
835.900, 0.081
836.000, 0.087
836.100, 0.087
836.200, 0.085
836.300, 0.087
836.400, 0.083
836.500, 0.082
836.600, 0.093
836.700, 0.105
836.800, 0.094
836.900, 0.087
837.000, 0.089
837.100, 0.089
837.200, 0.080
837.300, 0.087
837.400, 0.087
837.500, 0.090
837.600, 0.084
837.700, 0.091
837.800, 0.099
837.900, 0.100
838.000, 0.092
838.100, 0.094
838.200, 0.091
838.300, 0.112
838.400, 0.115
838.500, 0.108
838.600, 0.105
838.700, 0.107
838.800, 0.112
838.900, 0.099
839.000, 0.115
839.100, 0.105
839.200, 0.101
839.300, 0.109
839.400, 0.101
839.500, 0.100
839.600, 0.082
839.700, 0.089
839.800, 0.081
839.900, 0.079
840.000, 0.087
840.100, 0.096
840.200, 0.093
840.300, 0.104
840.400, 0.093
840.500, 0.100
840.600, 0.086
840.700, 0.093
840.800, 0.093
840.900, 0.097
841.000, 0.088
841.100, 0.087
841.200, 0.092
841.300, 0.080
841.400, 0.086
841.500, 0.087
841.600, 0.089
841.700, 0.087
841.800, 0.087
841.900, 0.081
842.000, 0.090
842.100, 0.092
842.200, 0.084
842.300, 0.084
842.400, 0.083
842.500, 0.085
842.600, 0.095
842.700, 0.081
842.800, 0.089
842.900, 0.083
843.000, 0.085
843.100, 0.090
843.200, 0.094
843.300, 0.088
843.400, 0.082
843.500, 0.091
843.600, 0.082
843.700, 0.091
843.800, 0.076
843.900, 0.095
844.000, 0.097
844.100, 0.084
844.200, 0.087
844.300, 0.090
844.400, 0.081
844.500, 0.080
844.600, 0.088
844.700, 0.084
844.800, 0.089
844.900, 0.086
845.000, 0.103
845.100, 0.095
845.200, 0.090
845.300, 0.094
845.400, 0.087
845.500, 0.099
845.600, 0.089
845.700, 0.090
845.800, 0.097
845.900, 0.097
846.000, 0.107
846.100, 0.101
846.200, 0.099
846.300, 0.106
846.400, 0.092
846.500, 0.093
846.600, 0.083
846.700, 0.099
846.800, 0.101
846.900, 0.094
847.000, 0.092
847.100, 0.101
847.200, 0.093
847.300, 0.082
847.400, 0.083
847.500, 0.096
847.600, 0.093
847.700, 0.090
847.800, 0.093
847.900, 0.086
848.000, 0.087
848.100, 0.092
848.200, 0.101
848.300, 0.096
848.400, 0.082
848.500, 0.088
848.600, 0.082
848.700, 0.085
848.800, 0.084
848.900, 0.086
849.000, 0.100
849.100, 0.087
849.200, 0.091
849.300, 0.091
849.400, 0.090
849.500, 0.087
849.600, 0.093
849.700, 0.083
849.800, 0.092
849.900, 0.105
850.000, 0.092
850.100, 0.101
850.200, 0.090
850.300, 0.093
850.400, 0.093
850.500, 0.090
850.600, 0.083
850.700, 0.080
850.800, 0.081
850.900, 0.087
851.000, 0.084
851.100, 0.084
851.200, 0.080
851.300, 0.091
851.400, 0.079
851.500, 0.092
851.600, 0.087
851.700, 0.087
851.800, 0.087
851.900, 0.093
852.000, 0.087
852.100, 0.090
852.200, 0.090
852.300, 0.093
852.400, 0.102
852.500, 0.090
852.600, 0.087
852.700, 0.080
852.800, 0.089
852.900, 0.084
853.000, 0.095
853.100, 0.084
853.200, 0.085
853.300, 0.090
853.400, 0.075
853.500, 0.084
853.600, 0.085
853.700, 0.092
853.800, 0.088
853.900, 0.087
854.000, 0.097
854.100, 0.094
854.200, 0.091
854.300, 0.087
854.400, 0.090
854.500, 0.085
854.600, 0.095
854.700, 0.087
854.800, 0.085
854.900, 0.081
855.000, 0.080
855.100, 0.083
855.200, 0.088
855.300, 0.093
855.400, 0.093
855.500, 0.092
855.600, 0.088
855.700, 0.088
855.800, 0.094
855.900, 0.090
856.000, 0.093
856.100, 0.091
856.200, 0.092
856.300, 0.093
856.400, 0.090
856.500, 0.099
856.600, 0.094
856.700, 0.098
856.800, 0.093
856.900, 0.095
857.000, 0.091
857.100, 0.098
857.200, 0.088
857.300, 0.088
857.400, 0.094
857.500, 0.097
857.600, 0.090
857.700, 0.087
857.800, 0.090
857.900, 0.094
858.000, 0.098
858.100, 0.093
858.200, 0.105
858.300, 0.088
858.400, 0.090
858.500, 0.102
858.600, 0.088
858.700, 0.093
858.800, 0.085
858.900, 0.092
859.000, 0.096
859.100, 0.098
859.200, 0.080
859.300, 0.083
859.400, 0.090
859.500, 0.087
859.600, 0.090
859.700, 0.087
859.800, 0.091
859.900, 0.078
860.000, 0.095
860.100, 0.096
860.200, 0.097
860.300, 0.090
860.400, 0.098
860.500, 0.098
860.600, 0.103
860.700, 0.102
860.800, 0.089
860.900, 0.092
861.000, 0.096
861.100, 0.103
861.200, 0.103
861.300, 0.109
861.400, 0.092
861.500, 0.104
861.600, 0.093
861.700, 0.091
861.800, 0.090
861.900, 0.098
862.000, 0.088
862.100, 0.086
862.200, 0.087
862.300, 0.094
862.400, 0.082
862.500, 0.085
862.600, 0.094
862.700, 0.089
862.800, 0.096
862.900, 0.086
863.000, 0.097
863.100, 0.089
863.200, 0.089
863.300, 0.100
863.400, 0.089
863.500, 0.106
863.600, 0.101
863.700, 0.105
863.800, 0.087
863.900, 0.097
864.000, 0.093
864.100, 0.097
864.200, 0.094
864.300, 0.093
864.400, 0.099
864.500, 0.095
864.600, 0.089
864.700, 0.091
864.800, 0.089
864.900, 0.086
865.000, 0.087
865.100, 0.086
865.200, 0.086
865.300, 0.084
865.400, 0.090
865.500, 0.097
865.600, 0.085
865.700, 0.092
865.800, 0.085
865.900, 0.082
866.000, 0.083
866.100, 0.096
866.200, 0.083
866.300, 0.099
866.400, 0.091
866.500, 0.080
866.600, 0.085
866.700, 0.088
866.800, 0.093
866.900, 0.097
867.000, 0.093
867.100, 0.096
867.200, 0.092
867.300, 0.096
867.400, 0.085
867.500, 0.081
867.600, 0.094
867.700, 0.094
867.800, 0.092
867.900, 0.092
868.000, 0.102
868.100, 0.098
868.200, 0.098
868.300, 0.097
868.400, 0.091
868.500, 0.094
868.600, 0.100
868.700, 0.097
868.800, 0.088
868.900, 0.095
869.000, 0.087
869.100, 0.088
869.200, 0.087
869.300, 0.089
869.400, 0.090
869.500, 0.089
869.600, 0.099
869.700, 0.097
869.800, 0.094
869.900, 0.093
870.000, 0.090
870.100, 0.096
870.200, 0.098
870.300, 0.089
870.400, 0.102
870.500, 0.099
870.600, 0.095
870.700, 0.097
870.800, 0.090
870.900, 0.090
871.000, 0.094
871.100, 0.084
871.200, 0.084
871.300, 0.088
871.400, 0.092
871.500, 0.094
871.600, 0.091
871.700, 0.091
871.800, 0.100
871.900, 0.091
872.000, 0.097
872.100, 0.096
872.200, 0.088
872.300, 0.098
872.400, 0.098
872.500, 0.082
872.600, 0.090
872.700, 0.088
872.800, 0.087
872.900, 0.082
873.000, 0.085
873.100, 0.091
873.200, 0.084
873.300, 0.086
873.400, 0.087
873.500, 0.092
873.600, 0.095
873.700, 0.091
873.800, 0.090
873.900, 0.100
874.000, 0.090
874.100, 0.096
874.200, 0.083
874.300, 0.084
874.400, 0.083
874.500, 0.082
874.600, 0.089
874.700, 0.101
874.800, 0.090
874.900, 0.088
875.000, 0.089
875.100, 0.087
875.200, 0.092
875.300, 0.085
875.400, 0.089
875.500, 0.089
875.600, 0.090
875.700, 0.091
875.800, 0.092
875.900, 0.087
876.000, 0.088
876.100, 0.087
876.200, 0.084
876.300, 0.088
876.400, 0.083
876.500, 0.094
876.600, 0.084
876.700, 0.088
876.800, 0.095
876.900, 0.087
877.000, 0.088
877.100, 0.096
877.200, 0.092
877.300, 0.097
877.400, 0.090
877.500, 0.085
877.600, 0.089
877.700, 0.091
877.800, 0.095
877.900, 0.095
878.000, 0.085
878.100, 0.091
878.200, 0.088
878.300, 0.094
878.400, 0.090
878.500, 0.086
878.600, 0.091
878.700, 0.090
878.800, 0.086
878.900, 0.084
879.000, 0.087
879.100, 0.081
879.200, 0.083
879.300, 0.087
879.400, 0.095
879.500, 0.100
879.600, 0.086
879.700, 0.081
879.800, 0.085
879.900, 0.086
880.000, 0.093
880.100, 0.091
880.200, 0.097
880.300, 0.088
880.400, 0.103
880.500, 0.106
880.600, 0.098
880.700, 0.093
880.800, 0.097
880.900, 0.090
881.000, 0.093
881.100, 0.094
881.200, 0.092
881.300, 0.093
881.400, 0.092
881.500, 0.091
881.600, 0.087
881.700, 0.092
881.800, 0.092
881.900, 0.086
882.000, 0.084
882.100, 0.096
882.200, 0.098
882.300, 0.092
882.400, 0.095
882.500, 0.090
882.600, 0.093
882.700, 0.092
882.800, 0.081
882.900, 0.090
883.000, 0.099
883.100, 0.090
883.200, 0.075
883.300, 0.077
883.400, 0.083
883.500, 0.090
883.600, 0.092
883.700, 0.088
883.800, 0.088
883.900, 0.083
884.000, 0.087
884.100, 0.086
884.200, 0.093
884.300, 0.098
884.400, 0.089
884.500, 0.093
884.600, 0.088
884.700, 0.085
884.800, 0.093
884.900, 0.080
885.000, 0.077
885.100, 0.083
885.200, 0.082
885.300, 0.093
885.400, 0.085
885.500, 0.095
885.600, 0.086
885.700, 0.092
885.800, 0.090
885.900, 0.098
886.000, 0.079
886.100, 0.084
886.200, 0.072
886.300, 0.082
886.400, 0.084
886.500, 0.088
886.600, 0.088
886.700, 0.084
886.800, 0.093
886.900, 0.092
887.000, 0.087
887.100, 0.098
887.200, 0.108
887.300, 0.092
887.400, 0.093
887.500, 0.084
887.600, 0.088
887.700, 0.076
887.800, 0.094
887.900, 0.090
888.000, 0.098
888.100, 0.090
888.200, 0.090
888.300, 0.092
888.400, 0.098
888.500, 0.096
888.600, 0.094
888.700, 0.098
888.800, 0.100
888.900, 0.101
889.000, 0.093
889.100, 0.085
889.200, 0.092
889.300, 0.100
889.400, 0.094
889.500, 0.096
889.600, 0.104
889.700, 0.097
889.800, 0.098
889.900, 0.098
890.000, 0.097
890.100, 0.095
890.200, 0.098
890.300, 0.094
890.400, 0.095
890.500, 0.095
890.600, 0.095
890.700, 0.086
890.800, 0.092
890.900, 0.090
891.000, 0.087
891.100, 0.080
891.200, 0.077
891.300, 0.080
891.400, 0.084
891.500, 0.080
891.600, 0.092
891.700, 0.094
891.800, 0.091
891.900, 0.091
892.000, 0.092
892.100, 0.091
892.200, 0.091
892.300, 0.087
892.400, 0.090
892.500, 0.100
892.600, 0.087
892.700, 0.088
892.800, 0.084
892.900, 0.083
893.000, 0.086
893.100, 0.088
893.200, 0.080
893.300, 0.088
893.400, 0.084
893.500, 0.088
893.600, 0.092
893.700, 0.087
893.800, 0.089
893.900, 0.088
894.000, 0.088
894.100, 0.085
894.200, 0.088
894.300, 0.084
894.400, 0.091
894.500, 0.088
894.600, 0.080
894.700, 0.100
894.800, 0.088
894.900, 0.088
895.000, 0.088
895.100, 0.090
895.200, 0.088
895.300, 0.100
895.400, 0.090
895.500, 0.081
895.600, 0.086
895.700, 0.088
895.800, 0.087
895.900, 0.089
896.000, 0.087
896.100, 0.096
896.200, 0.091
896.300, 0.093
896.400, 0.089
896.500, 0.082
896.600, 0.087
896.700, 0.089
896.800, 0.091
896.900, 0.088
897.000, 0.090
897.100, 0.092
897.200, 0.083
897.300, 0.086
897.400, 0.081
897.500, 0.089
897.600, 0.091
897.700, 0.087
897.800, 0.085
897.900, 0.088
898.000, 0.093
898.100, 0.088
898.200, 0.097
898.300, 0.093
898.400, 0.085
898.500, 0.092
898.600, 0.096
898.700, 0.089
898.800, 0.093
898.900, 0.086
899.000, 0.090
899.100, 0.094
899.200, 0.097
899.300, 0.094
899.400, 0.098
899.500, 0.095
899.600, 0.093
899.700, 0.090
899.800, 0.087
899.900, 0.085
900.000, 0.091
900.100, 0.086
900.200, 0.092
900.300, 0.086
900.400, 0.086
900.500, 0.084
900.600, 0.088
900.700, 0.093
900.800, 0.092
900.900, 0.101
901.000, 0.087
901.100, 0.085
901.200, 0.089
901.300, 0.085
901.400, 0.094
901.500, 0.092
901.600, 0.085
901.700, 0.095
901.800, 0.094
901.900, 0.088
902.000, 0.095
902.100, 0.104
902.200, 0.103
902.300, 0.100
902.400, 0.108
902.500, 0.101
902.600, 0.092
902.700, 0.089
902.800, 0.101
902.900, 0.090
903.000, 0.091
903.100, 0.090
903.200, 0.091
903.300, 0.088
903.400, 0.087
903.500, 0.085
903.600, 0.093
903.700, 0.089
903.800, 0.105
903.900, 0.098
904.000, 0.096
904.100, 0.082
904.200, 0.090
904.300, 0.085
904.400, 0.083
904.500, 0.097
904.600, 0.094
904.700, 0.099
904.800, 0.090
904.900, 0.098
905.000, 0.087
905.100, 0.090
905.200, 0.106
905.300, 0.099
905.400, 0.093
905.500, 0.093
905.600, 0.095
905.700, 0.088
905.800, 0.088
905.900, 0.105
906.000, 0.097
906.100, 0.094
906.200, 0.094
906.300, 0.092
906.400, 0.089
906.500, 0.090
906.600, 0.085
906.700, 0.090
906.800, 0.087
906.900, 0.095
907.000, 0.092
907.100, 0.094
907.200, 0.090
907.300, 0.082
907.400, 0.089
907.500, 0.094
907.600, 0.096
907.700, 0.090
907.800, 0.091
907.900, 0.097
908.000, 0.086
908.100, 0.105
908.200, 0.088
908.300, 0.088
908.400, 0.093
908.500, 0.091
908.600, 0.087
908.700, 0.095
908.800, 0.089
908.900, 0.091
909.000, 0.084
909.100, 0.088
909.200, 0.086
909.300, 0.094
909.400, 0.095
909.500, 0.094
909.600, 0.089
909.700, 0.079
909.800, 0.072
909.900, 0.089
910.000, 0.085
910.100, 0.088
910.200, 0.091
910.300, 0.087
910.400, 0.086
910.500, 0.085
910.600, 0.091
910.700, 0.086
910.800, 0.088
910.900, 0.084
911.000, 0.085
911.100, 0.088
911.200, 0.093
911.300, 0.092
911.400, 0.082
911.500, 0.086
911.600, 0.094
911.700, 0.085
911.800, 0.085
911.900, 0.084
912.000, 0.087
912.100, 0.088
912.200, 0.088
912.300, 0.085
912.400, 0.090
912.500, 0.095
912.600, 0.097
912.700, 0.096
912.800, 0.092
912.900, 0.087
913.000, 0.087
913.100, 0.088
913.200, 0.091
913.300, 0.093
913.400, 0.089
913.500, 0.084
913.600, 0.089
913.700, 0.080
913.800, 0.089
913.900, 0.081
914.000, 0.092
914.100, 0.088
914.200, 0.101
914.300, 0.091
914.400, 0.087
914.500, 0.086
914.600, 0.077
914.700, 0.084
914.800, 0.086
914.900, 0.091
915.000, 0.085
915.100, 0.090
915.200, 0.084
915.300, 0.080
915.400, 0.092
915.500, 0.086
915.600, 0.086
915.700, 0.085
915.800, 0.086
915.900, 0.088
916.000, 0.087
916.100, 0.079
916.200, 0.084
916.300, 0.082
916.400, 0.085
916.500, 0.082
916.600, 0.080
916.700, 0.089
916.800, 0.087
916.900, 0.089
917.000, 0.082
917.100, 0.083
917.200, 0.081
917.300, 0.089
917.400, 0.087
917.500, 0.089
917.600, 0.090
917.700, 0.082
917.800, 0.087
917.900, 0.078
918.000, 0.077
918.100, 0.082
918.200, 0.084
918.300, 0.086
918.400, 0.079
918.500, 0.073
918.600, 0.085
918.700, 0.082
918.800, 0.092
918.900, 0.081
919.000, 0.087
919.100, 0.084
919.200, 0.079
919.300, 0.084
919.400, 0.086
919.500, 0.088
919.600, 0.098
919.700, 0.097
919.800, 0.086
919.900, 0.085
920.000, 0.081
920.100, 0.097
920.200, 0.098
920.300, 0.095
920.400, 0.091
920.500, 0.088
920.600, 0.090
920.700, 0.094
920.800, 0.088
920.900, 0.085
921.000, 0.087
921.100, 0.080
921.200, 0.084
921.300, 0.086
921.400, 0.085
921.500, 0.080
921.600, 0.080
921.700, 0.084
921.800, 0.083
921.900, 0.084
922.000, 0.081
922.100, 0.086
922.200, 0.080
922.300, 0.078
922.400, 0.086
922.500, 0.086
922.600, 0.096
922.700, 0.087
922.800, 0.081
922.900, 0.085
923.000, 0.086
923.100, 0.086
923.200, 0.087
923.300, 0.087
923.400, 0.091
923.500, 0.090
923.600, 0.077
923.700, 0.081
923.800, 0.081
923.900, 0.082
924.000, 0.081
924.100, 0.086
924.200, 0.092
924.300, 0.094
924.400, 0.084
924.500, 0.091
924.600, 0.081
924.700, 0.087
924.800, 0.084
924.900, 0.085
925.000, 0.086
925.100, 0.082
925.200, 0.080
925.300, 0.085
925.400, 0.080
925.500, 0.085
925.600, 0.089
925.700, 0.099
925.800, 0.093
925.900, 0.084
926.000, 0.084
926.100, 0.078
926.200, 0.097
926.300, 0.088
926.400, 0.075
926.500, 0.085
926.600, 0.085
926.700, 0.079
926.800, 0.082
926.900, 0.078
927.000, 0.094
927.100, 0.082
927.200, 0.085
927.300, 0.083
927.400, 0.086
927.500, 0.082
927.600, 0.084
927.700, 0.091
927.800, 0.085
927.900, 0.085
928.000, 0.090
928.100, 0.091
928.200, 0.089
928.300, 0.088
928.400, 0.085
928.500, 0.076
928.600, 0.096
928.700, 0.084
928.800, 0.094
928.900, 0.083
929.000, 0.091
929.100, 0.093
929.200, 0.081
929.300, 0.076
929.400, 0.083
929.500, 0.078
929.600, 0.080
929.700, 0.089
929.800, 0.079
929.900, 0.084
930.000, 0.078
930.100, 0.088
930.200, 0.084
930.300, 0.080
930.400, 0.076
930.500, 0.093
930.600, 0.095
930.700, 0.085
930.800, 0.082
930.900, 0.087
931.000, 0.083
931.100, 0.086
931.200, 0.082
931.300, 0.085
931.400, 0.082
931.500, 0.087
931.600, 0.090
931.700, 0.087
931.800, 0.080
931.900, 0.087
932.000, 0.093
932.100, 0.097
932.200, 0.092
932.300, 0.097
932.400, 0.088
932.500, 0.094
932.600, 0.088
932.700, 0.086
932.800, 0.081
932.900, 0.095
933.000, 0.094
933.100, 0.086
933.200, 0.089
933.300, 0.096
933.400, 0.088
933.500, 0.095
933.600, 0.093
933.700, 0.094
933.800, 0.085
933.900, 0.087
934.000, 0.089
934.100, 0.087
934.200, 0.081
934.300, 0.086
934.400, 0.086
934.500, 0.092
934.600, 0.083
934.700, 0.079
934.800, 0.099
934.900, 0.096
935.000, 0.085
935.100, 0.092
935.200, 0.103
935.300, 0.093
935.400, 0.077
935.500, 0.087
935.600, 0.081
935.700, 0.083
935.800, 0.080
935.900, 0.083
936.000, 0.089
936.100, 0.084
936.200, 0.088
936.300, 0.083
936.400, 0.088
936.500, 0.094
936.600, 0.095
936.700, 0.090
936.800, 0.100
936.900, 0.104
937.000, 0.082
937.100, 0.090
937.200, 0.087
937.300, 0.091
937.400, 0.089
937.500, 0.091
937.600, 0.089
937.700, 0.092
937.800, 0.087
937.900, 0.079
938.000, 0.076
938.100, 0.079
938.200, 0.089
938.300, 0.081
938.400, 0.088
938.500, 0.083
938.600, 0.089
938.700, 0.085
938.800, 0.083
938.900, 0.091
939.000, 0.087
939.100, 0.093
939.200, 0.097
939.300, 0.098
939.400, 0.096
939.500, 0.096
939.600, 0.094
939.700, 0.088
939.800, 0.091
939.900, 0.085
940.000, 0.092
940.100, 0.085
940.200, 0.082
940.300, 0.084
940.400, 0.093
940.500, 0.083
940.600, 0.083
940.700, 0.088
940.800, 0.093
940.900, 0.093
941.000, 0.096
941.100, 0.103
941.200, 0.089
941.300, 0.085
941.400, 0.091
941.500, 0.091
941.600, 0.088
941.700, 0.082
941.800, 0.092
941.900, 0.088
942.000, 0.094
942.100, 0.105
942.200, 0.097
942.300, 0.086
942.400, 0.091
942.500, 0.091
942.600, 0.088
942.700, 0.094
942.800, 0.085
942.900, 0.086
943.000, 0.089
943.100, 0.087
943.200, 0.078
943.300, 0.081
943.400, 0.094
943.500, 0.091
943.600, 0.084
943.700, 0.091
943.800, 0.092
943.900, 0.087
944.000, 0.089
944.100, 0.097
944.200, 0.091
944.300, 0.090
944.400, 0.090
944.500, 0.096
944.600, 0.079
944.700, 0.087
944.800, 0.086
944.900, 0.092
945.000, 0.096
945.100, 0.096
945.200, 0.092
945.300, 0.093
945.400, 0.088
945.500, 0.083
945.600, 0.080
945.700, 0.081
945.800, 0.087
945.900, 0.087
946.000, 0.086
946.100, 0.085
946.200, 0.076
946.300, 0.089
946.400, 0.100
946.500, 0.084
946.600, 0.090
946.700, 0.086
946.800, 0.090
946.900, 0.084
947.000, 0.087
947.100, 0.086
947.200, 0.085
947.300, 0.085
947.400, 0.087
947.500, 0.078
947.600, 0.075
947.700, 0.079
947.800, 0.088
947.900, 0.089
948.000, 0.082
948.100, 0.079
948.200, 0.091
948.300, 0.081
948.400, 0.085
948.500, 0.082
948.600, 0.088
948.700, 0.090
948.800, 0.085
948.900, 0.086
949.000, 0.089
949.100, 0.089
949.200, 0.086
949.300, 0.089
949.400, 0.084
949.500, 0.096
949.600, 0.094
949.700, 0.082
949.800, 0.088
949.900, 0.095
950.000, 0.086
950.100, 0.085
950.200, 0.083
950.300, 0.089
950.400, 0.093
950.500, 0.098
950.600, 0.094
950.700, 0.087
950.800, 0.086
950.900, 0.099
951.000, 0.100
951.100, 0.097
951.200, 0.092
951.300, 0.077
951.400, 0.082
951.500, 0.095
951.600, 0.080
951.700, 0.088
951.800, 0.083
951.900, 0.090
952.000, 0.085
952.100, 0.087
952.200, 0.081
952.300, 0.090
952.400, 0.097
952.500, 0.085
952.600, 0.098
952.700, 0.085
952.800, 0.080
952.900, 0.081
953.000, 0.088
953.100, 0.096
953.200, 0.084
953.300, 0.076
953.400, 0.086
953.500, 0.088
953.600, 0.084
953.700, 0.090
953.800, 0.086
953.900, 0.094
954.000, 0.088
954.100, 0.078
954.200, 0.088
954.300, 0.085
954.400, 0.084
954.500, 0.088
954.600, 0.091
954.700, 0.081
954.800, 0.091
954.900, 0.093
955.000, 0.091
955.100, 0.095
955.200, 0.084
955.300, 0.084
955.400, 0.101
955.500, 0.090
955.600, 0.101
955.700, 0.088
955.800, 0.086
955.900, 0.091
956.000, 0.088
956.100, 0.086
956.200, 0.085
956.300, 0.086
956.400, 0.084
956.500, 0.093
956.600, 0.096
956.700, 0.090
956.800, 0.087
956.900, 0.088
957.000, 0.094
957.100, 0.088
957.200, 0.090
957.300, 0.091
957.400, 0.087
957.500, 0.086
957.600, 0.096
957.700, 0.107
957.800, 0.109
957.900, 0.103
958.000, 0.094
958.100, 0.088
958.200, 0.079
958.300, 0.089
958.400, 0.094
958.500, 0.074
958.600, 0.076
958.700, 0.080
958.800, 0.089
958.900, 0.093
959.000, 0.091
959.100, 0.092
959.200, 0.101
959.300, 0.098
959.400, 0.099
959.500, 0.091
959.600, 0.082
959.700, 0.090
959.800, 0.089
959.900, 0.084
960.000, 0.083
960.100, 0.084
960.200, 0.079
960.300, 0.079
960.400, 0.088
960.500, 0.091
960.600, 0.091
960.700, 0.086
960.800, 0.089
960.900, 0.077
961.000, 0.092
961.100, 0.086
961.200, 0.079
961.300, 0.083
961.400, 0.083
961.500, 0.085
961.600, 0.082
961.700, 0.089
961.800, 0.087
961.900, 0.088
962.000, 0.090
962.100, 0.086
962.200, 0.093
962.300, 0.087
962.400, 0.089
962.500, 0.086
962.600, 0.092
962.700, 0.091
962.800, 0.088
962.900, 0.091
963.000, 0.097
963.100, 0.090
963.200, 0.094
963.300, 0.083
963.400, 0.086
963.500, 0.094
963.600, 0.090
963.700, 0.079
963.800, 0.092
963.900, 0.095
964.000, 0.093
964.100, 0.102
964.200, 0.099
964.300, 0.094
964.400, 0.098
964.500, 0.088
964.600, 0.097
964.700, 0.096
964.800, 0.091
964.900, 0.087
965.000, 0.091
965.100, 0.097
965.200, 0.095
965.300, 0.084
965.400, 0.095
965.500, 0.084
965.600, 0.087
965.700, 0.093
965.800, 0.095
965.900, 0.100
966.000, 0.101
966.100, 0.094
966.200, 0.102
966.300, 0.100
966.400, 0.092
966.500, 0.095
966.600, 0.088
966.700, 0.094
966.800, 0.089
966.900, 0.088
967.000, 0.088
967.100, 0.090
967.200, 0.089
967.300, 0.087
967.400, 0.086
967.500, 0.089
967.600, 0.098
967.700, 0.095
967.800, 0.100
967.900, 0.092
968.000, 0.092
968.100, 0.082
968.200, 0.084
968.300, 0.081
968.400, 0.077
968.500, 0.091
968.600, 0.092
968.700, 0.090
968.800, 0.091
968.900, 0.095
969.000, 0.095
969.100, 0.085
969.200, 0.094
969.300, 0.089
969.400, 0.094
969.500, 0.094
969.600, 0.092
969.700, 0.094
969.800, 0.100
969.900, 0.093
970.000, 0.083
970.100, 0.082
970.200, 0.085
970.300, 0.079
970.400, 0.092
970.500, 0.084
970.600, 0.087
970.700, 0.080
970.800, 0.081
970.900, 0.081
971.000, 0.078
971.100, 0.080
971.200, 0.087
971.300, 0.094
971.400, 0.081
971.500, 0.081
971.600, 0.076
971.700, 0.077
971.800, 0.090
971.900, 0.096
972.000, 0.083
972.100, 0.091
972.200, 0.081
972.300, 0.087
972.400, 0.083
972.500, 0.083
972.600, 0.086
972.700, 0.097
972.800, 0.082
972.900, 0.085
973.000, 0.081
973.100, 0.092
973.200, 0.097
973.300, 0.106
973.400, 0.092
973.500, 0.095
973.600, 0.089
973.700, 0.086
973.800, 0.085
973.900, 0.097
974.000, 0.096
974.100, 0.094
974.200, 0.102
974.300, 0.105
974.400, 0.088
974.500, 0.096
974.600, 0.084
974.700, 0.074
974.800, 0.076
974.900, 0.075
975.000, 0.077
975.100, 0.085
975.200, 0.073
975.300, 0.068
975.400, 0.090
975.500, 0.094
975.600, 0.091
975.700, 0.091
975.800, 0.089
975.900, 0.077
976.000, 0.085
976.100, 0.083
976.200, 0.083
976.300, 0.078
976.400, 0.075
976.500, 0.071
976.600, 0.077
976.700, 0.078
976.800, 0.080
976.900, 0.084
977.000, 0.072
977.100, 0.081
977.200, 0.079
977.300, 0.081
977.400, 0.082
977.500, 0.086
977.600, 0.082
977.700, 0.086
977.800, 0.085
977.900, 0.089
978.000, 0.082
978.100, 0.080
978.200, 0.081
978.300, 0.078
978.400, 0.079
978.500, 0.074
978.600, 0.079
978.700, 0.080
978.800, 0.088
978.900, 0.080
979.000, 0.086
979.100, 0.082
979.200, 0.083
979.300, 0.079
979.400, 0.082
979.500, 0.083
979.600, 0.085
979.700, 0.078
979.800, 0.083
979.900, 0.081
980.000, 0.086
980.100, 0.085
980.200, 0.089
980.300, 0.085
980.400, 0.084
980.500, 0.086
980.600, 0.078
980.700, 0.090
980.800, 0.096
980.900, 0.083
981.000, 0.082
981.100, 0.085
981.200, 0.085
981.300, 0.081
981.400, 0.095
981.500, 0.086
981.600, 0.077
981.700, 0.081
981.800, 0.077
981.900, 0.072
982.000, 0.081
982.100, 0.074
982.200, 0.086
982.300, 0.081
982.400, 0.072
982.500, 0.089
982.600, 0.088
982.700, 0.088
982.800, 0.077
982.900, 0.075
983.000, 0.080
983.100, 0.080
983.200, 0.079
983.300, 0.081
983.400, 0.085
983.500, 0.092
983.600, 0.084
983.700, 0.082
983.800, 0.077
983.900, 0.079
984.000, 0.086
984.100, 0.072
984.200, 0.078
984.300, 0.084
984.400, 0.077
984.500, 0.072
984.600, 0.079
984.700, 0.083
984.800, 0.082
984.900, 0.076
985.000, 0.076
985.100, 0.073
985.200, 0.084
985.300, 0.084
985.400, 0.078
985.500, 0.084
985.600, 0.082
985.700, 0.077
985.800, 0.072
985.900, 0.074
986.000, 0.084
986.100, 0.072
986.200, 0.083
986.300, 0.084
986.400, 0.076
986.500, 0.088
986.600, 0.104
986.700, 0.096
986.800, 0.092
986.900, 0.086
987.000, 0.082
987.100, 0.084
987.200, 0.072
987.300, 0.073
987.400, 0.079
987.500, 0.074
987.600, 0.076
987.700, 0.081
987.800, 0.076
987.900, 0.080
988.000, 0.075
988.100, 0.080
988.200, 0.075
988.300, 0.077
988.400, 0.089
988.500, 0.076
988.600, 0.073
988.700, 0.072
988.800, 0.076
988.900, 0.075
989.000, 0.082
989.100, 0.085
989.200, 0.079
989.300, 0.078
989.400, 0.072
989.500, 0.078
989.600, 0.084
989.700, 0.087
989.800, 0.077
989.900, 0.073
990.000, 0.075
990.100, 0.076
990.200, 0.081
990.300, 0.089
990.400, 0.089
990.500, 0.085
990.600, 0.079
990.700, 0.089
990.800, 0.085
990.900, 0.084
991.000, 0.082
991.100, 0.080
991.200, 0.074
991.300, 0.072
991.400, 0.083
991.500, 0.096
991.600, 0.074
991.700, 0.079
991.800, 0.092
991.900, 0.080
992.000, 0.082
992.100, 0.082
992.200, 0.085
992.300, 0.081
992.400, 0.069
992.500, 0.070
992.600, 0.077
992.700, 0.072
992.800, 0.080
992.900, 0.081
993.000, 0.077
993.100, 0.077
993.200, 0.074
993.300, 0.083
993.400, 0.079
993.500, 0.075
993.600, 0.073
993.700, 0.074
993.800, 0.078
993.900, 0.083
994.000, 0.077
994.100, 0.081
994.200, 0.077
994.300, 0.080
994.400, 0.070
994.500, 0.083
994.600, 0.074
994.700, 0.085
994.800, 0.082
994.900, 0.075
995.000, 0.088
995.100, 0.082
995.200, 0.089
995.300, 0.075
995.400, 0.081
995.500, 0.083
995.600, 0.080
995.700, 0.073
995.800, 0.080
995.900, 0.073
996.000, 0.079
996.100, 0.083
996.200, 0.086
996.300, 0.089
996.400, 0.078
996.500, 0.073
996.600, 0.079
996.700, 0.082
996.800, 0.079
996.900, 0.079
997.000, 0.073
997.100, 0.071
997.200, 0.068
997.300, 0.070
997.400, 0.074
997.500, 0.079
997.600, 0.084
997.700, 0.078
997.800, 0.084
997.900, 0.073
998.000, 0.083
998.100, 0.085
998.200, 0.084
998.300, 0.078
998.400, 0.083
998.500, 0.070
998.600, 0.071
998.700, 0.067
998.800, 0.072
998.900, 0.068
999.000, 0.067
999.100, 0.071
999.200, 0.069
999.300, 0.067
999.400, 0.065
999.500, 0.069
999.600, 0.066
999.700, 0.062
999.800, 0.058
999.900, 0.008
1000.000, 0.001
