Time (ps), RMSD (nm)
0.000, 0.001
0.100, 0.104
0.200, 0.127
0.300, 0.108
0.400, 0.125
0.500, 0.116
0.600, 0.125
0.700, 0.108
0.800, 0.123
0.900, 0.115
1.000, 0.117
1.100, 0.116
1.200, 0.110
1.300, 0.106
1.400, 0.106
1.500, 0.117
1.600, 0.120
1.700, 0.107
1.800, 0.106
1.900, 0.101
2.000, 0.103
2.100, 0.105
2.200, 0.102
2.300, 0.110
2.400, 0.115
2.500, 0.101
2.600, 0.108
2.700, 0.101
2.800, 0.093
2.900, 0.101
3.000, 0.098
3.100, 0.103
3.200, 0.097
3.300, 0.086
3.400, 0.077
3.500, 0.097
3.600, 0.091
3.700, 0.087
3.800, 0.078
3.900, 0.091
4.000, 0.085
4.100, 0.083
4.200, 0.088
4.300, 0.088
4.400, 0.079
4.500, 0.096
4.600, 0.085
4.700, 0.087
4.800, 0.081
4.900, 0.079
5.000, 0.071
5.100, 0.073
5.200, 0.077
5.300, 0.075
5.400, 0.077
5.500, 0.088
5.600, 0.083
5.700, 0.076
5.800, 0.078
5.900, 0.085
6.000, 0.077
6.100, 0.078
6.200, 0.080
6.300, 0.072
6.400, 0.080
6.500, 0.080
6.600, 0.082
6.700, 0.080
6.800, 0.084
6.900, 0.095
7.000, 0.094
7.100, 0.088
7.200, 0.087
7.300, 0.081
7.400, 0.082
7.500, 0.093
7.600, 0.082
7.700, 0.078
7.800, 0.080
7.900, 0.086
8.000, 0.074
8.100, 0.089
8.200, 0.083
8.300, 0.079
8.400, 0.085
8.500, 0.090
8.600, 0.087
8.700, 0.081
8.800, 0.078
8.900, 0.081
9.000, 0.075
9.100, 0.084
9.200, 0.077
9.300, 0.079
9.400, 0.084
9.500, 0.084
9.600, 0.084
9.700, 0.084
9.800, 0.081
9.900, 0.082
10.000, 0.098
10.100, 0.091
10.200, 0.089
10.300, 0.087
10.400, 0.097
10.500, 0.079
10.600, 0.082
10.700, 0.088
10.800, 0.086
10.900, 0.087
11.000, 0.086
11.100, 0.083
11.200, 0.087
11.300, 0.080
11.400, 0.082
11.500, 0.081
11.600, 0.082
11.700, 0.079
11.800, 0.085
11.900, 0.077
12.000, 0.078
12.100, 0.085
12.200, 0.080
12.300, 0.096
12.400, 0.091
12.500, 0.087
12.600, 0.087
12.700, 0.089
12.800, 0.089
12.900, 0.084
13.000, 0.090
13.100, 0.094
13.200, 0.090
13.300, 0.089
13.400, 0.094
13.500, 0.088
13.600, 0.095
13.700, 0.086
13.800, 0.092
13.900, 0.091
14.000, 0.082
14.100, 0.084
14.200, 0.085
14.300, 0.089
14.400, 0.092
14.500, 0.083
14.600, 0.079
14.700, 0.098
14.800, 0.085
14.900, 0.092
15.000, 0.099
15.100, 0.086
15.200, 0.083
15.300, 0.079
15.400, 0.075
15.500, 0.076
15.600, 0.079
15.700, 0.083
15.800, 0.083
15.900, 0.087
16.000, 0.083
16.100, 0.085
16.200, 0.085
16.300, 0.089
16.400, 0.081
16.500, 0.087
16.600, 0.073
16.700, 0.072
16.800, 0.076
16.900, 0.085
17.000, 0.086
17.100, 0.086
17.200, 0.090
17.300, 0.088
17.400, 0.079
17.500, 0.078
17.600, 0.082
17.700, 0.080
17.800, 0.078
17.900, 0.069
18.000, 0.079
18.100, 0.076
18.200, 0.078
18.300, 0.085
18.400, 0.087
18.500, 0.085
18.600, 0.085
18.700, 0.079
18.800, 0.075
18.900, 0.093
19.000, 0.080
19.100, 0.080
19.200, 0.087
19.300, 0.085
19.400, 0.084
19.500, 0.093
19.600, 0.081
19.700, 0.085
19.800, 0.086
19.900, 0.081
20.000, 0.085
20.100, 0.104
20.200, 0.080
20.300, 0.084
20.400, 0.085
20.500, 0.080
20.600, 0.083
20.700, 0.083
20.800, 0.077
20.900, 0.085
21.000, 0.086
21.100, 0.086
21.200, 0.084
21.300, 0.081
21.400, 0.088
21.500, 0.090
21.600, 0.093
21.700, 0.088
21.800, 0.084
21.900, 0.093
22.000, 0.089
22.100, 0.073
22.200, 0.080
22.300, 0.084
22.400, 0.080
22.500, 0.089
22.600, 0.091
22.700, 0.074
22.800, 0.085
22.900, 0.090
23.000, 0.085
23.100, 0.081
23.200, 0.084
23.300, 0.082
23.400, 0.083
23.500, 0.082
23.600, 0.082
23.700, 0.075
23.800, 0.088
23.900, 0.087
24.000, 0.088
24.100, 0.086
24.200, 0.072
24.300, 0.091
24.400, 0.075
24.500, 0.080
24.600, 0.079
24.700, 0.083
24.800, 0.076
24.900, 0.073
25.000, 0.078
25.100, 0.084
25.200, 0.076
25.300, 0.079
25.400, 0.082
25.500, 0.087
25.600, 0.084
25.700, 0.088
25.800, 0.085
25.900, 0.090
26.000, 0.092
26.100, 0.089
26.200, 0.079
26.300, 0.085
26.400, 0.083
26.500, 0.077
26.600, 0.076
26.700, 0.083
26.800, 0.079
26.900, 0.086
27.000, 0.088
27.100, 0.096
27.200, 0.082
27.300, 0.088
27.400, 0.083
27.500, 0.090
27.600, 0.089
27.700, 0.080
27.800, 0.074
27.900, 0.085
28.000, 0.080
28.100, 0.085
28.200, 0.089
28.300, 0.083
28.400, 0.088
28.500, 0.085
28.600, 0.087
28.700, 0.093
28.800, 0.095
28.900, 0.080
29.000, 0.083
29.100, 0.091
29.200, 0.083
29.300, 0.083
29.400, 0.083
29.500, 0.083
29.600, 0.086
29.700, 0.080
29.800, 0.084
29.900, 0.085
30.000, 0.085
30.100, 0.080
30.200, 0.082
30.300, 0.085
30.400, 0.092
30.500, 0.084
30.600, 0.077
30.700, 0.083
30.800, 0.084
30.900, 0.075
31.000, 0.086
31.100, 0.085
31.200, 0.095
31.300, 0.091
31.400, 0.092
31.500, 0.089
31.600, 0.095
31.700, 0.083
31.800, 0.092
31.900, 0.089
32.000, 0.101
32.100, 0.088
32.200, 0.091
32.300, 0.090
32.400, 0.085
32.500, 0.088
32.600, 0.083
32.700, 0.092
32.800, 0.081
32.900, 0.094
33.000, 0.093
33.100, 0.090
33.200, 0.097
33.300, 0.091
33.400, 0.082
33.500, 0.089
33.600, 0.091
33.700, 0.094
33.800, 0.087
33.900, 0.086
34.000, 0.089
34.100, 0.103
34.200, 0.090
34.300, 0.103
34.400, 0.098
34.500, 0.106
34.600, 0.097
34.700, 0.099
34.800, 0.096
34.900, 0.096
35.000, 0.093
35.100, 0.105
35.200, 0.096
35.300, 0.100
35.400, 0.086
35.500, 0.093
35.600, 0.094
35.700, 0.087
35.800, 0.085
35.900, 0.092
36.000, 0.085
36.100, 0.094
36.200, 0.094
36.300, 0.090
36.400, 0.092
36.500, 0.090
36.600, 0.090
36.700, 0.082
36.800, 0.089
36.900, 0.095
37.000, 0.087
37.100, 0.091
37.200, 0.098
37.300, 0.101
37.400, 0.109
37.500, 0.086
37.600, 0.088
37.700, 0.095
37.800, 0.094
37.900, 0.090
38.000, 0.096
38.100, 0.088
38.200, 0.095
38.300, 0.094
38.400, 0.089
38.500, 0.087
38.600, 0.095
38.700, 0.095
38.800, 0.088
38.900, 0.106
39.000, 0.089
39.100, 0.091
39.200, 0.088
39.300, 0.088
39.400, 0.095
39.500, 0.087
39.600, 0.096
39.700, 0.102
39.800, 0.095
39.900, 0.085
40.000, 0.091
40.100, 0.091
40.200, 0.085
40.300, 0.089
40.400, 0.097
40.500, 0.087
40.600, 0.097
40.700, 0.099
40.800, 0.101
40.900, 0.091
41.000, 0.094
41.100, 0.093
41.200, 0.081
41.300, 0.090
41.400, 0.088
41.500, 0.082
41.600, 0.086
41.700, 0.089
41.800, 0.078
41.900, 0.086
42.000, 0.083
42.100, 0.085
42.200, 0.079
42.300, 0.082
42.400, 0.094
42.500, 0.093
42.600, 0.083
42.700, 0.086
42.800, 0.082
42.900, 0.087
43.000, 0.090
43.100, 0.087
43.200, 0.083
43.300, 0.092
43.400, 0.086
43.500, 0.086
43.600, 0.089
43.700, 0.093
43.800, 0.084
43.900, 0.079
44.000, 0.090
44.100, 0.094
44.200, 0.082
44.300, 0.092
44.400, 0.106
44.500, 0.086
44.600, 0.100
44.700, 0.090
44.800, 0.087
44.900, 0.087
45.000, 0.082
45.100, 0.104
45.200, 0.092
45.300, 0.083
45.400, 0.088
45.500, 0.084
45.600, 0.084
45.700, 0.086
45.800, 0.084
45.900, 0.097
46.000, 0.087
46.100, 0.089
46.200, 0.083
46.300, 0.090
46.400, 0.079
46.500, 0.081
46.600, 0.092
46.700, 0.090
46.800, 0.093
46.900, 0.090
47.000, 0.095
47.100, 0.083
47.200, 0.091
47.300, 0.090
47.400, 0.097
47.500, 0.088
47.600, 0.084
47.700, 0.102
47.800, 0.094
47.900, 0.094
48.000, 0.095
48.100, 0.102
48.200, 0.097
48.300, 0.084
48.400, 0.094
48.500, 0.091
48.600, 0.083
48.700, 0.096
48.800, 0.089
48.900, 0.089
49.000, 0.083
49.100, 0.076
49.200, 0.095
49.300, 0.080
49.400, 0.090
49.500, 0.101
49.600, 0.092
49.700, 0.083
49.800, 0.099
49.900, 0.088
50.000, 0.090
50.100, 0.093
50.200, 0.095
50.300, 0.097
50.400, 0.092
50.500, 0.089
50.600, 0.099
50.700, 0.091
50.800, 0.094
50.900, 0.090
51.000, 0.085
51.100, 0.084
51.200, 0.086
51.300, 0.097
51.400, 0.091
51.500, 0.096
51.600, 0.082
51.700, 0.086
51.800, 0.090
51.900, 0.095
52.000, 0.093
52.100, 0.108
52.200, 0.098
52.300, 0.093
52.400, 0.080
52.500, 0.089
52.600, 0.099
52.700, 0.100
52.800, 0.088
52.900, 0.086
53.000, 0.090
53.100, 0.092
53.200, 0.088
53.300, 0.083
53.400, 0.082
53.500, 0.083
53.600, 0.087
53.700, 0.087
53.800, 0.086
53.900, 0.088
54.000, 0.084
54.100, 0.089
54.200, 0.088
54.300, 0.084
54.400, 0.078
54.500, 0.086
54.600, 0.085
54.700, 0.086
54.800, 0.079
54.900, 0.088
55.000, 0.090
55.100, 0.084
55.200, 0.087
55.300, 0.086
55.400, 0.078
55.500, 0.081
55.600, 0.077
55.700, 0.086
55.800, 0.087
55.900, 0.088
56.000, 0.096
56.100, 0.088
56.200, 0.097
56.300, 0.085
56.400, 0.086
56.500, 0.097
56.600, 0.099
56.700, 0.094
56.800, 0.092
56.900, 0.090
57.000, 0.092
57.100, 0.093
57.200, 0.079
57.300, 0.094
57.400, 0.093
57.500, 0.098
57.600, 0.095
57.700, 0.095
57.800, 0.083
57.900, 0.091
58.000, 0.089
58.100, 0.085
58.200, 0.093
58.300, 0.080
58.400, 0.081
58.500, 0.095
58.600, 0.091
58.700, 0.095
58.800, 0.087
58.900, 0.088
59.000, 0.087
59.100, 0.085
59.200, 0.096
59.300, 0.090
59.400, 0.094
59.500, 0.088
59.600, 0.097
59.700, 0.092
59.800, 0.094
59.900, 0.090
60.000, 0.089
60.100, 0.097
60.200, 0.092
60.300, 0.099
60.400, 0.085
60.500, 0.090
60.600, 0.096
60.700, 0.092
60.800, 0.093
60.900, 0.096
61.000, 0.092
61.100, 0.089
61.200, 0.097
61.300, 0.096
61.400, 0.088
61.500, 0.095
61.600, 0.104
61.700, 0.099
61.800, 0.093
61.900, 0.101
62.000, 0.101
62.100, 0.107
62.200, 0.097
62.300, 0.094
62.400, 0.096
62.500, 0.091
62.600, 0.094
62.700, 0.087
62.800, 0.096
62.900, 0.099
63.000, 0.096
63.100, 0.106
63.200, 0.096
63.300, 0.092
63.400, 0.097
63.500, 0.096
63.600, 0.099
63.700, 0.100
63.800, 0.091
63.900, 0.111
64.000, 0.104
64.100, 0.099
64.200, 0.089
64.300, 0.090
64.400, 0.096
64.500, 0.093
64.600, 0.103
64.700, 0.086
64.800, 0.091
64.900, 0.103
65.000, 0.100
65.100, 0.095
65.200, 0.088
65.300, 0.098
65.400, 0.107
65.500, 0.103
65.600, 0.113
65.700, 0.106
65.800, 0.103
65.900, 0.106
66.000, 0.110
66.100, 0.122
66.200, 0.119
66.300, 0.109
66.400, 0.100
66.500, 0.100
66.600, 0.103
66.700, 0.104
66.800, 0.106
66.900, 0.095
67.000, 0.095
67.100, 0.112
67.200, 0.104
67.300, 0.103
67.400, 0.098
67.500, 0.096
67.600, 0.096
67.700, 0.099
67.800, 0.099
67.900, 0.094
68.000, 0.105
68.100, 0.103
68.200, 0.105
68.300, 0.094
68.400, 0.106
68.500, 0.113
68.600, 0.105
68.700, 0.091
68.800, 0.100
68.900, 0.107
69.000, 0.095
69.100, 0.096
69.200, 0.100
69.300, 0.097
69.400, 0.099
69.500, 0.095
69.600, 0.098
69.700, 0.106
69.800, 0.104
69.900, 0.107
70.000, 0.105
70.100, 0.102
70.200, 0.108
70.300, 0.100
70.400, 0.094
70.500, 0.109
70.600, 0.098
70.700, 0.101
70.800, 0.097
70.900, 0.087
71.000, 0.095
71.100, 0.092
71.200, 0.103
71.300, 0.089
71.400, 0.102
71.500, 0.100
71.600, 0.099
71.700, 0.106
71.800, 0.097
71.900, 0.100
72.000, 0.107
72.100, 0.099
72.200, 0.106
72.300, 0.097
72.400, 0.107
72.500, 0.107
72.600, 0.095
72.700, 0.114
72.800, 0.099
72.900, 0.095
73.000, 0.100
73.100, 0.096
73.200, 0.100
73.300, 0.106
73.400, 0.100
73.500, 0.102
73.600, 0.104
73.700, 0.097
73.800, 0.094
73.900, 0.099
74.000, 0.102
74.100, 0.102
74.200, 0.104
74.300, 0.100
74.400, 0.095
74.500, 0.107
74.600, 0.095
74.700, 0.095
74.800, 0.097
74.900, 0.117
75.000, 0.104
75.100, 0.107
75.200, 0.105
75.300, 0.101
75.400, 0.095
75.500, 0.098
75.600, 0.100
75.700, 0.094
75.800, 0.098
75.900, 0.101
76.000, 0.100
76.100, 0.096
76.200, 0.104
76.300, 0.102
76.400, 0.099
76.500, 0.096
76.600, 0.092
76.700, 0.094
76.800, 0.097
76.900, 0.103
77.000, 0.098
77.100, 0.112
77.200, 0.102
77.300, 0.104
77.400, 0.112
77.500, 0.107
77.600, 0.113
77.700, 0.105
77.800, 0.111
77.900, 0.104
78.000, 0.111
78.100, 0.105
78.200, 0.115
78.300, 0.124
78.400, 0.103
78.500, 0.105
78.600, 0.102
78.700, 0.108
78.800, 0.100
78.900, 0.105
79.000, 0.106
79.100, 0.103
79.200, 0.105
79.300, 0.100
79.400, 0.107
79.500, 0.097
79.600, 0.103
79.700, 0.095
79.800, 0.105
79.900, 0.095
80.000, 0.090
80.100, 0.095
80.200, 0.090
80.300, 0.095
80.400, 0.099
80.500, 0.094
80.600, 0.100
80.700, 0.102
80.800, 0.098
80.900, 0.099
81.000, 0.098
81.100, 0.088
81.200, 0.093
81.300, 0.094
81.400, 0.094
81.500, 0.094
81.600, 0.085
81.700, 0.093
81.800, 0.086
81.900, 0.089
82.000, 0.086
82.100, 0.084
82.200, 0.090
82.300, 0.097
82.400, 0.096
82.500, 0.090
82.600, 0.094
82.700, 0.096
82.800, 0.089
82.900, 0.102
83.000, 0.097
83.100, 0.092
83.200, 0.091
83.300, 0.088
83.400, 0.098
83.500, 0.102
83.600, 0.103
83.700, 0.100
83.800, 0.104
83.900, 0.102
84.000, 0.104
84.100, 0.094
84.200, 0.101
84.300, 0.099
84.400, 0.094
84.500, 0.095
84.600, 0.090
84.700, 0.095
84.800, 0.098
84.900, 0.097
85.000, 0.090
85.100, 0.096
85.200, 0.097
85.300, 0.097
85.400, 0.103
85.500, 0.107
85.600, 0.093
85.700, 0.090
85.800, 0.097
85.900, 0.089
86.000, 0.100
86.100, 0.092
86.200, 0.102
86.300, 0.091
86.400, 0.091
86.500, 0.092
86.600, 0.099
86.700, 0.101
86.800, 0.101
86.900, 0.099
87.000, 0.095
87.100, 0.097
87.200, 0.105
87.300, 0.103
87.400, 0.091
87.500, 0.091
87.600, 0.101
87.700, 0.099
87.800, 0.095
87.900, 0.091
88.000, 0.092
88.100, 0.106
88.200, 0.091
88.300, 0.087
88.400, 0.085
88.500, 0.097
88.600, 0.090
88.700, 0.092
88.800, 0.090
88.900, 0.101
89.000, 0.100
89.100, 0.096
89.200, 0.089
89.300, 0.099
89.400, 0.098
89.500, 0.096
89.600, 0.102
89.700, 0.089
89.800, 0.099
89.900, 0.093
90.000, 0.094
90.100, 0.094
90.200, 0.093
90.300, 0.108
90.400, 0.102
90.500, 0.089
90.600, 0.097
90.700, 0.086
90.800, 0.094
90.900, 0.102
91.000, 0.109
91.100, 0.102
91.200, 0.105
91.300, 0.092
91.400, 0.092
91.500, 0.103
91.600, 0.091
91.700, 0.096
91.800, 0.089
91.900, 0.086
92.000, 0.093
92.100, 0.098
92.200, 0.090
92.300, 0.114
92.400, 0.089
92.500, 0.100
92.600, 0.087
92.700, 0.086
92.800, 0.092
92.900, 0.084
93.000, 0.092
93.100, 0.092
93.200, 0.094
93.300, 0.091
93.400, 0.097
93.500, 0.085
93.600, 0.097
93.700, 0.089
93.800, 0.087
93.900, 0.089
94.000, 0.086
94.100, 0.100
94.200, 0.085
94.300, 0.104
94.400, 0.094
94.500, 0.093
94.600, 0.091
94.700, 0.104
94.800, 0.093
94.900, 0.103
95.000, 0.095
95.100, 0.091
95.200, 0.085
95.300, 0.079
95.400, 0.084
95.500, 0.091
95.600, 0.087
95.700, 0.094
95.800, 0.085
95.900, 0.085
96.000, 0.091
96.100, 0.088
96.200, 0.089
96.300, 0.090
96.400, 0.094
96.500, 0.090
96.600, 0.090
96.700, 0.096
96.800, 0.096
96.900, 0.090
97.000, 0.100
97.100, 0.086
97.200, 0.097
97.300, 0.092
97.400, 0.100
97.500, 0.095
97.600, 0.100
97.700, 0.101
97.800, 0.092
97.900, 0.099
98.000, 0.092
98.100, 0.085
98.200, 0.093
98.300, 0.093
98.400, 0.104
98.500, 0.103
98.600, 0.097
98.700, 0.100
98.800, 0.093
98.900, 0.097
99.000, 0.095
99.100, 0.102
99.200, 0.096
99.300, 0.088
99.400, 0.101
99.500, 0.095
99.600, 0.089
99.700, 0.096
99.800, 0.103
99.900, 0.097
100.000, 0.106
100.100, 0.094
100.200, 0.105
100.300, 0.100
100.400, 0.104
100.500, 0.102
100.600, 0.108
100.700, 0.107
100.800, 0.096
100.900, 0.098
101.000, 0.112
101.100, 0.104
101.200, 0.109
101.300, 0.100
101.400, 0.096
101.500, 0.084
101.600, 0.091
101.700, 0.095
101.800, 0.096
101.900, 0.094
102.000, 0.097
102.100, 0.093
102.200, 0.100
102.300, 0.096
102.400, 0.093
102.500, 0.094
102.600, 0.102
102.700, 0.104
102.800, 0.099
102.900, 0.096
103.000, 0.096
103.100, 0.100
103.200, 0.097
103.300, 0.094
103.400, 0.105
103.500, 0.095
103.600, 0.101
103.700, 0.087
103.800, 0.090
103.900, 0.103
104.000, 0.100
104.100, 0.104
104.200, 0.094
104.300, 0.092
104.400, 0.098
104.500, 0.091
104.600, 0.098
104.700, 0.092
104.800, 0.094
104.900, 0.096
105.000, 0.092
105.100, 0.091
105.200, 0.086
105.300, 0.103
105.400, 0.098
105.500, 0.098
105.600, 0.100
105.700, 0.090
105.800, 0.094
105.900, 0.090
106.000, 0.096
106.100, 0.102
106.200, 0.092
106.300, 0.093
106.400, 0.098
106.500, 0.102
106.600, 0.089
106.700, 0.104
106.800, 0.091
106.900, 0.104
107.000, 0.104
107.100, 0.105
107.200, 0.090
107.300, 0.095
107.400, 0.090
107.500, 0.096
107.600, 0.095
107.700, 0.102
107.800, 0.092
107.900, 0.092
108.000, 0.092
108.100, 0.098
108.200, 0.085
108.300, 0.092
108.400, 0.094
108.500, 0.092
108.600, 0.084
108.700, 0.089
108.800, 0.097
108.900, 0.094
109.000, 0.088
109.100, 0.100
109.200, 0.092
109.300, 0.098
109.400, 0.089
109.500, 0.090
109.600, 0.089
109.700, 0.099
109.800, 0.097
109.900, 0.087
110.000, 0.088
110.100, 0.099
110.200, 0.097
110.300, 0.093
110.400, 0.087
110.500, 0.089
110.600, 0.097
110.700, 0.094
110.800, 0.101
110.900, 0.097
111.000, 0.107
111.100, 0.094
111.200, 0.095
111.300, 0.089
111.400, 0.095
111.500, 0.092
111.600, 0.093
111.700, 0.104
111.800, 0.094
111.900, 0.092
112.000, 0.087
112.100, 0.098
112.200, 0.090
112.300, 0.094
112.400, 0.100
112.500, 0.102
112.600, 0.095
112.700, 0.095
112.800, 0.088
112.900, 0.087
113.000, 0.101
113.100, 0.111
113.200, 0.095
113.300, 0.094
113.400, 0.097
113.500, 0.102
113.600, 0.118
113.700, 0.093
113.800, 0.095
113.900, 0.094
114.000, 0.100
114.100, 0.092
114.200, 0.099
114.300, 0.098
114.400, 0.099
114.500, 0.096
114.600, 0.094
114.700, 0.094
114.800, 0.088
114.900, 0.103
115.000, 0.101
115.100, 0.095
115.200, 0.101
115.300, 0.092
115.400, 0.098
115.500, 0.088
115.600, 0.087
115.700, 0.094
115.800, 0.092
115.900, 0.092
116.000, 0.092
116.100, 0.095
116.200, 0.094
116.300, 0.098
116.400, 0.098
116.500, 0.100
116.600, 0.096
116.700, 0.103
116.800, 0.098
116.900, 0.102
117.000, 0.100
117.100, 0.097
117.200, 0.098
117.300, 0.120
117.400, 0.107
117.500, 0.100
117.600, 0.101
117.700, 0.112
117.800, 0.107
117.900, 0.105
118.000, 0.106
118.100, 0.109
118.200, 0.098
118.300, 0.107
118.400, 0.120
118.500, 0.117
118.600, 0.102
118.700, 0.100
118.800, 0.113
118.900, 0.107
119.000, 0.109
119.100, 0.102
119.200, 0.110
119.300, 0.121
119.400, 0.110
119.500, 0.102
119.600, 0.098
119.700, 0.113
119.800, 0.115
119.900, 0.104
120.000, 0.116
120.100, 0.119
120.200, 0.127
120.300, 0.118
120.400, 0.111
120.500, 0.113
120.600, 0.132
120.700, 0.119
120.800, 0.136
120.900, 0.135
121.000, 0.128
121.100, 0.137
121.200, 0.126
121.300, 0.116
121.400, 0.118
121.500, 0.119
121.600, 0.118
121.700, 0.108
121.800, 0.101
121.900, 0.109
122.000, 0.097
122.100, 0.101
122.200, 0.111
122.300, 0.101
122.400, 0.097
122.500, 0.108
122.600, 0.114
122.700, 0.103
122.800, 0.119
122.900, 0.115
123.000, 0.102
123.100, 0.112
123.200, 0.112
123.300, 0.098
123.400, 0.105
123.500, 0.113
123.600, 0.120
123.700, 0.120
123.800, 0.114
123.900, 0.122
124.000, 0.115
124.100, 0.094
124.200, 0.091
124.300, 0.092
124.400, 0.084
124.500, 0.111
124.600, 0.099
124.700, 0.100
124.800, 0.107
124.900, 0.102
125.000, 0.099
125.100, 0.110
125.200, 0.110
125.300, 0.107
125.400, 0.111
125.500, 0.111
125.600, 0.105
125.700, 0.112
125.800, 0.119
125.900, 0.143
126.000, 0.107
126.100, 0.097
126.200, 0.092
126.300, 0.094
126.400, 0.100
126.500, 0.090
126.600, 0.083
126.700, 0.098
126.800, 0.095
126.900, 0.095
127.000, 0.092
127.100, 0.099
127.200, 0.089
127.300, 0.087
127.400, 0.093
127.500, 0.091
127.600, 0.095
127.700, 0.090
127.800, 0.084
127.900, 0.082
128.000, 0.092
128.100, 0.089
128.200, 0.091
128.300, 0.082
128.400, 0.089
128.500, 0.099
128.600, 0.098
128.700, 0.108
128.800, 0.102
128.900, 0.097
129.000, 0.097
129.100, 0.097
129.200, 0.095
129.300, 0.096
129.400, 0.099
129.500, 0.095
129.600, 0.090
129.700, 0.090
129.800, 0.086
129.900, 0.091
130.000, 0.092
130.100, 0.096
130.200, 0.100
130.300, 0.082
130.400, 0.087
130.500, 0.094
130.600, 0.083
130.700, 0.088
130.800, 0.092
130.900, 0.085
131.000, 0.088
131.100, 0.090
131.200, 0.102
131.300, 0.099
131.400, 0.096
131.500, 0.086
131.600, 0.087
131.700, 0.099
131.800, 0.084
131.900, 0.092
132.000, 0.091
132.100, 0.084
132.200, 0.081
132.300, 0.093
132.400, 0.086
132.500, 0.083
132.600, 0.083
132.700, 0.093
132.800, 0.091
132.900, 0.089
133.000, 0.086
133.100, 0.091
133.200, 0.075
133.300, 0.078
133.400, 0.087
133.500, 0.074
133.600, 0.077
133.700, 0.083
133.800, 0.072
133.900, 0.074
134.000, 0.078
134.100, 0.076
134.200, 0.084
134.300, 0.086
134.400, 0.088
134.500, 0.083
134.600, 0.083
134.700, 0.077
134.800, 0.079
134.900, 0.089
135.000, 0.092
135.100, 0.094
135.200, 0.086
135.300, 0.087
135.400, 0.088
135.500, 0.093
135.600, 0.089
135.700, 0.097
135.800, 0.081
135.900, 0.091
136.000, 0.090
136.100, 0.073
136.200, 0.091
136.300, 0.081
136.400, 0.088
136.500, 0.080
136.600, 0.084
136.700, 0.085
136.800, 0.096
136.900, 0.078
137.000, 0.090
137.100, 0.090
137.200, 0.086
137.300, 0.092
137.400, 0.098
137.500, 0.083
137.600, 0.076
137.700, 0.076
137.800, 0.086
137.900, 0.091
138.000, 0.083
138.100, 0.080
138.200, 0.080
138.300, 0.073
138.400, 0.083
138.500, 0.086
138.600, 0.097
138.700, 0.087
138.800, 0.094
138.900, 0.088
139.000, 0.084
139.100, 0.079
139.200, 0.091
139.300, 0.082
139.400, 0.078
139.500, 0.084
139.600, 0.075
139.700, 0.077
139.800, 0.085
139.900, 0.077
140.000, 0.082
140.100, 0.087
140.200, 0.087
140.300, 0.089
140.400, 0.089
140.500, 0.080
140.600, 0.087
140.700, 0.080
140.800, 0.086
140.900, 0.082
141.000, 0.086
141.100, 0.091
141.200, 0.086
141.300, 0.089
141.400, 0.087
141.500, 0.081
141.600, 0.090
141.700, 0.085
141.800, 0.095
141.900, 0.101
142.000, 0.103
142.100, 0.098
142.200, 0.089
142.300, 0.079
142.400, 0.093
142.500, 0.094
142.600, 0.086
142.700, 0.087
142.800, 0.092
142.900, 0.087
143.000, 0.090
143.100, 0.094
143.200, 0.086
143.300, 0.083
143.400, 0.082
143.500, 0.089
143.600, 0.093
143.700, 0.083
143.800, 0.093
143.900, 0.098
144.000, 0.085
144.100, 0.096
144.200, 0.096
144.300, 0.081
144.400, 0.083
144.500, 0.079
144.600, 0.089
144.700, 0.081
144.800, 0.080
144.900, 0.085
145.000, 0.084
145.100, 0.081
145.200, 0.100
145.300, 0.084
145.400, 0.087
145.500, 0.086
145.600, 0.082
145.700, 0.081
145.800, 0.081
145.900, 0.088
146.000, 0.083
146.100, 0.090
146.200, 0.090
146.300, 0.084
146.400, 0.076
146.500, 0.075
146.600, 0.079
146.700, 0.084
146.800, 0.084
146.900, 0.081
147.000, 0.085
147.100, 0.083
147.200, 0.085
147.300, 0.087
147.400, 0.096
147.500, 0.086
147.600, 0.091
147.700, 0.095
147.800, 0.088
147.900, 0.086
148.000, 0.086
148.100, 0.089
148.200, 0.094
148.300, 0.104
148.400, 0.086
148.500, 0.093
148.600, 0.095
148.700, 0.093
148.800, 0.082
148.900, 0.082
149.000, 0.087
149.100, 0.082
149.200, 0.088
149.300, 0.086
149.400, 0.085
149.500, 0.078
149.600, 0.078
149.700, 0.080
149.800, 0.093
149.900, 0.087
150.000, 0.074
150.100, 0.084
150.200, 0.087
150.300, 0.079
150.400, 0.078
150.500, 0.078
150.600, 0.083
150.700, 0.082
150.800, 0.081
150.900, 0.086
151.000, 0.084
151.100, 0.081
151.200, 0.097
151.300, 0.086
151.400, 0.081
151.500, 0.089
151.600, 0.084
151.700, 0.095
151.800, 0.082
151.900, 0.081
152.000, 0.077
152.100, 0.083
152.200, 0.081
152.300, 0.090
152.400, 0.085
152.500, 0.092
152.600, 0.083
152.700, 0.087
152.800, 0.084
152.900, 0.088
153.000, 0.085
153.100, 0.090
153.200, 0.090
153.300, 0.083
153.400, 0.091
153.500, 0.092
153.600, 0.087
153.700, 0.084
153.800, 0.085
153.900, 0.097
154.000, 0.085
154.100, 0.083
154.200, 0.080
154.300, 0.091
154.400, 0.088
154.500, 0.094
154.600, 0.088
154.700, 0.095
154.800, 0.085
154.900, 0.089
155.000, 0.079
155.100, 0.085
155.200, 0.102
155.300, 0.093
155.400, 0.085
155.500, 0.077
155.600, 0.085
155.700, 0.087
155.800, 0.087
155.900, 0.085
156.000, 0.080
156.100, 0.083
156.200, 0.089
156.300, 0.095
156.400, 0.093
156.500, 0.086
156.600, 0.096
156.700, 0.086
156.800, 0.080
156.900, 0.080
157.000, 0.084
157.100, 0.085
157.200, 0.088
157.300, 0.087
157.400, 0.084
157.500, 0.091
157.600, 0.079
157.700, 0.085
157.800, 0.083
157.900, 0.081
158.000, 0.078
158.100, 0.082
158.200, 0.083
158.300, 0.089
158.400, 0.096
158.500, 0.089
158.600, 0.086
158.700, 0.081
158.800, 0.081
158.900, 0.092
159.000, 0.090
159.100, 0.076
159.200, 0.077
159.300, 0.083
159.400, 0.083
159.500, 0.091
159.600, 0.087
159.700, 0.074
159.800, 0.083
159.900, 0.085
160.000, 0.091
160.100, 0.094
160.200, 0.090
160.300, 0.084
160.400, 0.079
160.500, 0.080
160.600, 0.087
160.700, 0.076
160.800, 0.088
160.900, 0.085
161.000, 0.090
161.100, 0.089
161.200, 0.109
161.300, 0.090
161.400, 0.081
161.500, 0.093
161.600, 0.086
161.700, 0.078
161.800, 0.087
161.900, 0.088
162.000, 0.078
162.100, 0.095
162.200, 0.084
162.300, 0.084
162.400, 0.086
162.500, 0.090
162.600, 0.078
162.700, 0.085
162.800, 0.080
162.900, 0.092
163.000, 0.088
163.100, 0.084
163.200, 0.089
163.300, 0.094
163.400, 0.080
163.500, 0.080
163.600, 0.087
163.700, 0.083
163.800, 0.088
163.900, 0.081
164.000, 0.086
164.100, 0.080
164.200, 0.083
164.300, 0.076
164.400, 0.077
164.500, 0.076
164.600, 0.081
164.700, 0.080
164.800, 0.080
164.900, 0.079
165.000, 0.094
165.100, 0.089
165.200, 0.082
165.300, 0.091
165.400, 0.087
165.500, 0.085
165.600, 0.087
165.700, 0.094
165.800, 0.088
165.900, 0.080
166.000, 0.092
166.100, 0.083
166.200, 0.081
166.300, 0.092
166.400, 0.095
166.500, 0.083
166.600, 0.086
166.700, 0.087
166.800, 0.089
166.900, 0.082
167.000, 0.094
167.100, 0.088
167.200, 0.087
167.300, 0.088
167.400, 0.079
167.500, 0.086
167.600, 0.090
167.700, 0.093
167.800, 0.085
167.900, 0.094
168.000, 0.110
168.100, 0.098
168.200, 0.084
168.300, 0.082
168.400, 0.086
168.500, 0.089
168.600, 0.079
168.700, 0.085
168.800, 0.087
168.900, 0.081
169.000, 0.089
169.100, 0.092
169.200, 0.084
169.300, 0.075
169.400, 0.081
169.500, 0.089
169.600, 0.080
169.700, 0.084
169.800, 0.087
169.900, 0.086
170.000, 0.086
170.100, 0.083
170.200, 0.083
170.300, 0.077
170.400, 0.078
170.500, 0.076
170.600, 0.081
170.700, 0.087
170.800, 0.087
170.900, 0.075
171.000, 0.077
171.100, 0.079
171.200, 0.086
171.300, 0.082
171.400, 0.085
171.500, 0.078
171.600, 0.080
171.700, 0.091
171.800, 0.088
171.900, 0.097
172.000, 0.092
172.100, 0.083
172.200, 0.088
172.300, 0.085
172.400, 0.091
172.500, 0.091
172.600, 0.085
172.700, 0.090
172.800, 0.086
172.900, 0.087
173.000, 0.086
173.100, 0.084
173.200, 0.090
173.300, 0.085
173.400, 0.087
173.500, 0.085
173.600, 0.077
173.700, 0.086
173.800, 0.082
173.900, 0.085
174.000, 0.080
174.100, 0.079
174.200, 0.081
174.300, 0.084
174.400, 0.085
174.500, 0.076
174.600, 0.082
174.700, 0.087
174.800, 0.088
174.900, 0.089
175.000, 0.099
175.100, 0.089
175.200, 0.086
175.300, 0.082
175.400, 0.083
175.500, 0.082
175.600, 0.085
175.700, 0.082
175.800, 0.078
175.900, 0.086
176.000, 0.086
176.100, 0.083
176.200, 0.085
176.300, 0.086
176.400, 0.095
176.500, 0.081
176.600, 0.083
176.700, 0.087
176.800, 0.086
176.900, 0.085
177.000, 0.085
177.100, 0.084
177.200, 0.084
177.300, 0.090
177.400, 0.099
177.500, 0.089
177.600, 0.082
177.700, 0.080
177.800, 0.085
177.900, 0.084
178.000, 0.083
178.100, 0.076
178.200, 0.079
178.300, 0.086
178.400, 0.081
178.500, 0.077
178.600, 0.082
178.700, 0.081
178.800, 0.077
178.900, 0.089
179.000, 0.074
179.100, 0.082
179.200, 0.081
179.300, 0.082
179.400, 0.088
179.500, 0.077
179.600, 0.086
179.700, 0.084
179.800, 0.075
179.900, 0.078
180.000, 0.077
180.100, 0.083
180.200, 0.082
180.300, 0.088
180.400, 0.079
180.500, 0.075
180.600, 0.075
180.700, 0.084
180.800, 0.076
180.900, 0.086
181.000, 0.091
181.100, 0.084
181.200, 0.085
181.300, 0.077
181.400, 0.082
181.500, 0.083
181.600, 0.088
181.700, 0.079
181.800, 0.085
181.900, 0.080
182.000, 0.079
182.100, 0.080
182.200, 0.083
182.300, 0.089
182.400, 0.083
182.500, 0.093
182.600, 0.085
182.700, 0.084
182.800, 0.088
182.900, 0.079
183.000, 0.084
183.100, 0.082
183.200, 0.079
183.300, 0.084
183.400, 0.091
183.500, 0.090
183.600, 0.076
183.700, 0.077
183.800, 0.077
183.900, 0.084
184.000, 0.090
184.100, 0.077
184.200, 0.086
184.300, 0.089
184.400, 0.091
184.500, 0.096
184.600, 0.089
184.700, 0.103
184.800, 0.099
184.900, 0.089
185.000, 0.093
185.100, 0.092
185.200, 0.088
185.300, 0.087
185.400, 0.080
185.500, 0.092
185.600, 0.095
185.700, 0.100
185.800, 0.101
185.900, 0.088
186.000, 0.099
186.100, 0.094
186.200, 0.082
186.300, 0.085
186.400, 0.077
186.500, 0.092
186.600, 0.085
186.700, 0.081
186.800, 0.088
186.900, 0.092
187.000, 0.092
187.100, 0.089
187.200, 0.086
187.300, 0.091
187.400, 0.092
187.500, 0.086
187.600, 0.088
187.700, 0.079
187.800, 0.082
187.900, 0.093
188.000, 0.097
188.100, 0.085
188.200, 0.083
188.300, 0.099
188.400, 0.083
188.500, 0.085
188.600, 0.096
188.700, 0.085
188.800, 0.099
188.900, 0.087
189.000, 0.085
189.100, 0.085
189.200, 0.077
189.300, 0.089
189.400, 0.097
189.500, 0.088
189.600, 0.086
189.700, 0.083
189.800, 0.082
189.900, 0.096
190.000, 0.087
190.100, 0.082
190.200, 0.078
190.300, 0.089
190.400, 0.086
190.500, 0.078
190.600, 0.074
190.700, 0.079
190.800, 0.087
190.900, 0.088
191.000, 0.087
191.100, 0.080
191.200, 0.089
191.300, 0.086
191.400, 0.090
191.500, 0.095
191.600, 0.090
191.700, 0.091
191.800, 0.090
191.900, 0.087
192.000, 0.097
192.100, 0.093
192.200, 0.088
192.300, 0.086
192.400, 0.082
192.500, 0.093
192.600, 0.086
192.700, 0.084
192.800, 0.086
192.900, 0.079
193.000, 0.087
193.100, 0.082
193.200, 0.092
193.300, 0.088
193.400, 0.090
193.500, 0.085
193.600, 0.080
193.700, 0.085
193.800, 0.087
193.900, 0.084
194.000, 0.086
194.100, 0.095
194.200, 0.090
194.300, 0.088
194.400, 0.083
194.500, 0.082
194.600, 0.091
194.700, 0.078
194.800, 0.083
194.900, 0.077
195.000, 0.086
195.100, 0.090
195.200, 0.085
195.300, 0.078
195.400, 0.082
195.500, 0.071
195.600, 0.078
195.700, 0.077
195.800, 0.081
195.900, 0.075
196.000, 0.079
196.100, 0.076
196.200, 0.085
196.300, 0.076
196.400, 0.091
196.500, 0.098
196.600, 0.085
196.700, 0.088
196.800, 0.091
196.900, 0.086
197.000, 0.094
197.100, 0.084
197.200, 0.089
197.300, 0.079
197.400, 0.086
197.500, 0.090
197.600, 0.085
197.700, 0.084
197.800, 0.085
197.900, 0.082
198.000, 0.073
198.100, 0.076
198.200, 0.080
198.300, 0.086
198.400, 0.082
198.500, 0.083
198.600, 0.078
198.700, 0.086
198.800, 0.092
198.900, 0.087
199.000, 0.083
199.100, 0.085
199.200, 0.083
199.300, 0.084
199.400, 0.094
199.500, 0.093
199.600, 0.089
199.700, 0.084
199.800, 0.085
199.900, 0.089
200.000, 0.095
200.100, 0.084
200.200, 0.096
200.300, 0.089
200.400, 0.097
200.500, 0.104
200.600, 0.089
200.700, 0.090
200.800, 0.097
200.900, 0.095
201.000, 0.086
201.100, 0.086
201.200, 0.090
201.300, 0.090
201.400, 0.087
201.500, 0.093
201.600, 0.092
201.700, 0.090
201.800, 0.088
201.900, 0.095
202.000, 0.093
202.100, 0.098
202.200, 0.102
202.300, 0.104
202.400, 0.101
202.500, 0.097
202.600, 0.110
202.700, 0.105
202.800, 0.099
202.900, 0.086
203.000, 0.095
203.100, 0.106
203.200, 0.107
203.300, 0.102
203.400, 0.112
203.500, 0.091
203.600, 0.111
203.700, 0.101
203.800, 0.103
203.900, 0.101
204.000, 0.089
204.100, 0.098
204.200, 0.110
204.300, 0.106
204.400, 0.096
204.500, 0.101
204.600, 0.096
204.700, 0.103
204.800, 0.093
204.900, 0.097
205.000, 0.093
205.100, 0.093
205.200, 0.089
205.300, 0.091
205.400, 0.091
205.500, 0.101
205.600, 0.099
205.700, 0.094
205.800, 0.103
205.900, 0.094
206.000, 0.104
206.100, 0.097
206.200, 0.106
206.300, 0.098
206.400, 0.104
206.500, 0.092
206.600, 0.090
206.700, 0.098
206.800, 0.100
206.900, 0.089
207.000, 0.089
207.100, 0.091
207.200, 0.092
207.300, 0.088
207.400, 0.097
207.500, 0.092
207.600, 0.097
207.700, 0.097
207.800, 0.093
207.900, 0.096
208.000, 0.095
208.100, 0.104
208.200, 0.111
208.300, 0.107
208.400, 0.096
208.500, 0.118
208.600, 0.088
208.700, 0.088
208.800, 0.094
208.900, 0.099
209.000, 0.094
209.100, 0.095
209.200, 0.095
209.300, 0.104
209.400, 0.106
209.500, 0.101
209.600, 0.104
209.700, 0.090
209.800, 0.093
209.900, 0.086
210.000, 0.098
210.100, 0.097
210.200, 0.102
210.300, 0.098
210.400, 0.097
210.500, 0.094
210.600, 0.093
210.700, 0.090
210.800, 0.094
210.900, 0.110
211.000, 0.096
211.100, 0.102
211.200, 0.107
211.300, 0.098
211.400, 0.099
211.500, 0.091
211.600, 0.092
211.700, 0.107
211.800, 0.102
211.900, 0.095
212.000, 0.091
212.100, 0.093
212.200, 0.092
212.300, 0.088
212.400, 0.089
212.500, 0.103
212.600, 0.113
212.700, 0.097
212.800, 0.102
212.900, 0.088
213.000, 0.082
213.100, 0.092
213.200, 0.087
213.300, 0.090
213.400, 0.088
213.500, 0.092
213.600, 0.082
213.700, 0.102
213.800, 0.091
213.900, 0.092
214.000, 0.089
214.100, 0.097
214.200, 0.088
214.300, 0.089
214.400, 0.101
214.500, 0.096
214.600, 0.094
214.700, 0.100
214.800, 0.102
214.900, 0.101
215.000, 0.098
215.100, 0.096
215.200, 0.096
215.300, 0.090
215.400, 0.098
215.500, 0.099
215.600, 0.091
215.700, 0.097
215.800, 0.085
215.900, 0.087
216.000, 0.090
216.100, 0.100
216.200, 0.097
216.300, 0.106
216.400, 0.113
216.500, 0.099
216.600, 0.106
216.700, 0.098
216.800, 0.097
216.900, 0.093
217.000, 0.097
217.100, 0.098
217.200, 0.099
217.300, 0.096
217.400, 0.085
217.500, 0.093
217.600, 0.098
217.700, 0.103
217.800, 0.099
217.900, 0.099
218.000, 0.108
218.100, 0.095
218.200, 0.093
218.300, 0.096
218.400, 0.090
218.500, 0.087
218.600, 0.094
218.700, 0.100
218.800, 0.096
218.900, 0.091
219.000, 0.092
219.100, 0.093
219.200, 0.100
219.300, 0.094
219.400, 0.101
219.500, 0.093
219.600, 0.092
219.700, 0.095
219.800, 0.095
219.900, 0.093
220.000, 0.101
220.100, 0.089
220.200, 0.095
220.300, 0.088
220.400, 0.094
220.500, 0.093
220.600, 0.090
220.700, 0.093
220.800, 0.095
220.900, 0.094
221.000, 0.086
221.100, 0.106
221.200, 0.097
221.300, 0.089
221.400, 0.097
221.500, 0.087
221.600, 0.098
221.700, 0.096
221.800, 0.089
221.900, 0.100
222.000, 0.093
222.100, 0.103
222.200, 0.094
222.300, 0.100
222.400, 0.089
222.500, 0.093
222.600, 0.103
222.700, 0.086
222.800, 0.081
222.900, 0.087
223.000, 0.104
223.100, 0.093
223.200, 0.100
223.300, 0.100
223.400, 0.098
223.500, 0.095
223.600, 0.097
223.700, 0.099
223.800, 0.096
223.900, 0.106
224.000, 0.100
224.100, 0.098
224.200, 0.090
224.300, 0.089
224.400, 0.088
224.500, 0.093
224.600, 0.094
224.700, 0.094
224.800, 0.097
224.900, 0.100
225.000, 0.101
225.100, 0.094
225.200, 0.094
225.300, 0.098
225.400, 0.087
225.500, 0.097
225.600, 0.096
225.700, 0.091
225.800, 0.092
225.900, 0.100
226.000, 0.105
226.100, 0.104
226.200, 0.095
226.300, 0.091
226.400, 0.086
226.500, 0.098
226.600, 0.090
226.700, 0.091
226.800, 0.096
226.900, 0.093
227.000, 0.094
227.100, 0.092
227.200, 0.105
227.300, 0.095
227.400, 0.089
227.500, 0.103
227.600, 0.101
227.700, 0.094
227.800, 0.101
227.900, 0.095
228.000, 0.096
228.100, 0.098
228.200, 0.094
228.300, 0.089
228.400, 0.086
228.500, 0.097
228.600, 0.096
228.700, 0.090
228.800, 0.091
228.900, 0.101
229.000, 0.092
229.100, 0.088
229.200, 0.087
229.300, 0.096
229.400, 0.088
229.500, 0.086
229.600, 0.092
229.700, 0.088
229.800, 0.097
229.900, 0.094
230.000, 0.111
230.100, 0.101
230.200, 0.095
230.300, 0.090
230.400, 0.088
230.500, 0.105
230.600, 0.096
230.700, 0.105
230.800, 0.094
230.900, 0.107
231.000, 0.097
231.100, 0.103
231.200, 0.098
231.300, 0.103
231.400, 0.103
231.500, 0.091
231.600, 0.100
231.700, 0.093
231.800, 0.092
231.900, 0.091
232.000, 0.100
232.100, 0.089
232.200, 0.094
232.300, 0.091
232.400, 0.093
232.500, 0.088
232.600, 0.094
232.700, 0.095
232.800, 0.102
232.900, 0.108
233.000, 0.112
233.100, 0.099
233.200, 0.104
233.300, 0.095
233.400, 0.101
233.500, 0.098
233.600, 0.102
233.700, 0.099
233.800, 0.097
233.900, 0.100
234.000, 0.093
234.100, 0.103
234.200, 0.097
234.300, 0.095
234.400, 0.100
234.500, 0.098
234.600, 0.093
234.700, 0.100
234.800, 0.107
234.900, 0.107
235.000, 0.096
235.100, 0.100
235.200, 0.098
235.300, 0.097
235.400, 0.100
235.500, 0.091
235.600, 0.094
235.700, 0.091
235.800, 0.095
235.900, 0.086
236.000, 0.094
236.100, 0.095
236.200, 0.088
236.300, 0.098
236.400, 0.099
236.500, 0.096
236.600, 0.091
236.700, 0.098
236.800, 0.092
236.900, 0.099
237.000, 0.100
237.100, 0.094
237.200, 0.098
237.300, 0.099
237.400, 0.101
237.500, 0.102
237.600, 0.101
237.700, 0.096
237.800, 0.103
237.900, 0.102
238.000, 0.101
238.100, 0.101
238.200, 0.095
238.300, 0.102
238.400, 0.101
238.500, 0.101
238.600, 0.092
238.700, 0.093
238.800, 0.083
238.900, 0.098
239.000, 0.105
239.100, 0.095
239.200, 0.093
239.300, 0.089
239.400, 0.094
239.500, 0.089
239.600, 0.087
239.700, 0.090
239.800, 0.094
239.900, 0.094
240.000, 0.103
240.100, 0.098
240.200, 0.110
240.300, 0.108
240.400, 0.099
240.500, 0.096
240.600, 0.096
240.700, 0.103
240.800, 0.103
240.900, 0.106
241.000, 0.108
241.100, 0.103
241.200, 0.108
241.300, 0.103
241.400, 0.106
241.500, 0.111
241.600, 0.102
241.700, 0.110
241.800, 0.088
241.900, 0.101
242.000, 0.104
242.100, 0.098
242.200, 0.100
242.300, 0.102
242.400, 0.098
242.500, 0.097
242.600, 0.093
242.700, 0.095
242.800, 0.102
242.900, 0.090
243.000, 0.099
243.100, 0.098
243.200, 0.101
243.300, 0.094
243.400, 0.100
243.500, 0.091
243.600, 0.091
243.700, 0.092
243.800, 0.093
243.900, 0.102
244.000, 0.101
244.100, 0.097
244.200, 0.096
244.300, 0.094
244.400, 0.098
244.500, 0.107
244.600, 0.108
244.700, 0.102
244.800, 0.102
244.900, 0.094
245.000, 0.093
245.100, 0.101
245.200, 0.101
245.300, 0.091
245.400, 0.102
245.500, 0.098
245.600, 0.090
245.700, 0.089
245.800, 0.094
245.900, 0.084
246.000, 0.099
246.100, 0.099
246.200, 0.091
246.300, 0.098
246.400, 0.093
246.500, 0.093
246.600, 0.095
246.700, 0.096
246.800, 0.089
246.900, 0.094
247.000, 0.100
247.100, 0.097
247.200, 0.088
247.300, 0.098
247.400, 0.095
247.500, 0.097
247.600, 0.099
247.700, 0.097
247.800, 0.086
247.900, 0.091
248.000, 0.097
248.100, 0.096
248.200, 0.095
248.300, 0.099
248.400, 0.098
248.500, 0.098
248.600, 0.099
248.700, 0.089
248.800, 0.095
248.900, 0.098
249.000, 0.092
249.100, 0.101
249.200, 0.089
249.300, 0.100
249.400, 0.089
249.500, 0.088
249.600, 0.091
249.700, 0.107
249.800, 0.099
249.900, 0.100
250.000, 0.097
250.100, 0.102
250.200, 0.093
250.300, 0.100
250.400, 0.088
250.500, 0.092
250.600, 0.088
250.700, 0.093
250.800, 0.095
250.900, 0.087
251.000, 0.089
251.100, 0.092
251.200, 0.092
251.300, 0.086
251.400, 0.083
251.500, 0.082
251.600, 0.088
251.700, 0.084
251.800, 0.099
251.900, 0.104
252.000, 0.090
252.100, 0.094
252.200, 0.100
252.300, 0.097
252.400, 0.088
252.500, 0.109
252.600, 0.096
252.700, 0.093
252.800, 0.089
252.900, 0.093
253.000, 0.091
253.100, 0.087
253.200, 0.084
253.300, 0.086
253.400, 0.095
253.500, 0.092
253.600, 0.087
253.700, 0.102
253.800, 0.102
253.900, 0.105
254.000, 0.100
254.100, 0.098
254.200, 0.105
254.300, 0.111
254.400, 0.089
254.500, 0.097
254.600, 0.102
254.700, 0.095
254.800, 0.102
254.900, 0.093
255.000, 0.101
255.100, 0.110
255.200, 0.099
255.300, 0.112
255.400, 0.093
255.500, 0.106
255.600, 0.093
255.700, 0.096
255.800, 0.099
255.900, 0.097
256.000, 0.100
256.100, 0.092
256.200, 0.100
256.300, 0.102
256.400, 0.093
256.500, 0.087
256.600, 0.094
256.700, 0.091
256.800, 0.097
256.900, 0.094
257.000, 0.098
257.100, 0.092
257.200, 0.085
257.300, 0.096
257.400, 0.101
257.500, 0.101
257.600, 0.091
257.700, 0.105
257.800, 0.103
257.900, 0.095
258.000, 0.095
258.100, 0.096
258.200, 0.102
258.300, 0.091
258.400, 0.096
258.500, 0.092
258.600, 0.089
258.700, 0.095
258.800, 0.095
258.900, 0.097
259.000, 0.090
259.100, 0.092
259.200, 0.093
259.300, 0.093
259.400, 0.096
259.500, 0.091
259.600, 0.089
259.700, 0.091
259.800, 0.089
259.900, 0.092
260.000, 0.092
260.100, 0.100
260.200, 0.096
260.300, 0.092
260.400, 0.096
260.500, 0.108
260.600, 0.094
260.700, 0.107
260.800, 0.092
260.900, 0.097
261.000, 0.104
261.100, 0.095
261.200, 0.095
261.300, 0.093
261.400, 0.089
261.500, 0.100
261.600, 0.091
261.700, 0.099
261.800, 0.093
261.900, 0.098
262.000, 0.085
262.100, 0.094
262.200, 0.087
262.300, 0.098
262.400, 0.096
262.500, 0.095
262.600, 0.091
262.700, 0.102
262.800, 0.094
262.900, 0.102
263.000, 0.092
263.100, 0.101
263.200, 0.103
263.300, 0.099
263.400, 0.093
263.500, 0.095
263.600, 0.093
263.700, 0.100
263.800, 0.098
263.900, 0.097
264.000, 0.094
264.100, 0.093
264.200, 0.091
264.300, 0.100
264.400, 0.102
264.500, 0.100
264.600, 0.101
264.700, 0.105
264.800, 0.102
264.900, 0.106
265.000, 0.097
265.100, 0.098
265.200, 0.103
265.300, 0.093
265.400, 0.091
265.500, 0.097
265.600, 0.100
265.700, 0.105
265.800, 0.098
265.900, 0.089
266.000, 0.092
266.100, 0.093
266.200, 0.095
266.300, 0.098
266.400, 0.098
266.500, 0.099
266.600, 0.091
266.700, 0.089
266.800, 0.091
266.900, 0.092
267.000, 0.088
267.100, 0.093
267.200, 0.096
267.300, 0.085
267.400, 0.091
267.500, 0.091
267.600, 0.084
267.700, 0.095
267.800, 0.089
267.900, 0.095
268.000, 0.093
268.100, 0.088
268.200, 0.089
268.300, 0.092
268.400, 0.087
268.500, 0.087
268.600, 0.086
268.700, 0.088
268.800, 0.086
268.900, 0.092
269.000, 0.084
269.100, 0.100
269.200, 0.099
269.300, 0.100
269.400, 0.089
269.500, 0.089
269.600, 0.097
269.700, 0.091
269.800, 0.100
269.900, 0.093
270.000, 0.098
270.100, 0.100
270.200, 0.104
270.300, 0.102
270.400, 0.102
270.500, 0.094
270.600, 0.100
270.700, 0.110
270.800, 0.098
270.900, 0.090
271.000, 0.097
271.100, 0.099
271.200, 0.093
271.300, 0.092
271.400, 0.095
271.500, 0.096
271.600, 0.103
271.700, 0.094
271.800, 0.089
271.900, 0.090
272.000, 0.102
272.100, 0.091
272.200, 0.092
272.300, 0.099
272.400, 0.096
272.500, 0.095
272.600, 0.095
272.700, 0.092
272.800, 0.107
272.900, 0.102
273.000, 0.104
273.100, 0.100
273.200, 0.094
273.300, 0.096
273.400, 0.093
273.500, 0.100
273.600, 0.104
273.700, 0.103
273.800, 0.107
273.900, 0.099
274.000, 0.107
274.100, 0.099
274.200, 0.101
274.300, 0.099
274.400, 0.102
274.500, 0.095
274.600, 0.093
274.700, 0.094
274.800, 0.089
274.900, 0.096
275.000, 0.098
275.100, 0.103
275.200, 0.090
275.300, 0.089
275.400, 0.098
275.500, 0.101
275.600, 0.098
275.700, 0.093
275.800, 0.097
275.900, 0.100
276.000, 0.094
276.100, 0.098
276.200, 0.097
276.300, 0.096
276.400, 0.106
276.500, 0.104
276.600, 0.092
276.700, 0.091
276.800, 0.095
276.900, 0.094
277.000, 0.092
277.100, 0.092
277.200, 0.094
277.300, 0.090
277.400, 0.092
277.500, 0.099
277.600, 0.089
277.700, 0.087
277.800, 0.093
277.900, 0.095
278.000, 0.094
278.100, 0.094
278.200, 0.092
278.300, 0.105
278.400, 0.099
278.500, 0.090
278.600, 0.089
278.700, 0.087
278.800, 0.092
278.900, 0.090
279.000, 0.096
279.100, 0.089
279.200, 0.098
279.300, 0.091
279.400, 0.088
279.500, 0.090
279.600, 0.095
279.700, 0.094
279.800, 0.095
279.900, 0.091
280.000, 0.091
280.100, 0.093
280.200, 0.094
280.300, 0.095
280.400, 0.095
280.500, 0.086
280.600, 0.086
280.700, 0.094
280.800, 0.096
280.900, 0.091
281.000, 0.097
281.100, 0.090
281.200, 0.086
281.300, 0.088
281.400, 0.091
281.500, 0.093
281.600, 0.099
281.700, 0.095
281.800, 0.089
281.900, 0.094
282.000, 0.091
282.100, 0.098
282.200, 0.094
282.300, 0.103
282.400, 0.087
282.500, 0.093
282.600, 0.089
282.700, 0.090
282.800, 0.103
282.900, 0.098
283.000, 0.102
283.100, 0.098
283.200, 0.099
283.300, 0.085
283.400, 0.099
283.500, 0.106
283.600, 0.094
283.700, 0.084
283.800, 0.092
283.900, 0.089
284.000, 0.111
284.100, 0.104
284.200, 0.093
284.300, 0.099
284.400, 0.091
284.500, 0.084
284.600, 0.084
284.700, 0.096
284.800, 0.088
284.900, 0.089
285.000, 0.101
285.100, 0.093
285.200, 0.088
285.300, 0.091
285.400, 0.090
285.500, 0.092
285.600, 0.087
285.700, 0.090
285.800, 0.089
285.900, 0.087
286.000, 0.101
286.100, 0.089
286.200, 0.086
286.300, 0.085
286.400, 0.091
286.500, 0.092
286.600, 0.088
286.700, 0.093
286.800, 0.098
286.900, 0.093
287.000, 0.094
287.100, 0.091
287.200, 0.093
287.300, 0.094
287.400, 0.081
287.500, 0.086
287.600, 0.083
287.700, 0.081
287.800, 0.084
287.900, 0.083
288.000, 0.083
288.100, 0.078
288.200, 0.087
288.300, 0.083
288.400, 0.081
288.500, 0.100
288.600, 0.085
288.700, 0.084
288.800, 0.081
288.900, 0.086
289.000, 0.079
289.100, 0.084
289.200, 0.083
289.300, 0.083
289.400, 0.092
289.500, 0.086
289.600, 0.090
289.700, 0.083
289.800, 0.091
289.900, 0.102
290.000, 0.092
290.100, 0.099
290.200, 0.086
290.300, 0.089
290.400, 0.090
290.500, 0.084
290.600, 0.088
290.700, 0.090
290.800, 0.079
290.900, 0.084
291.000, 0.103
291.100, 0.098
291.200, 0.088
291.300, 0.091
291.400, 0.087
291.500, 0.086
291.600, 0.094
291.700, 0.092
291.800, 0.104
291.900, 0.109
292.000, 0.098
292.100, 0.088
292.200, 0.092
292.300, 0.082
292.400, 0.087
292.500, 0.088
292.600, 0.089
292.700, 0.105
292.800, 0.090
292.900, 0.094
293.000, 0.101
293.100, 0.095
293.200, 0.094
293.300, 0.105
293.400, 0.099
293.500, 0.107
293.600, 0.095
293.700, 0.094
293.800, 0.095
293.900, 0.083
294.000, 0.106
294.100, 0.104
294.200, 0.095
294.300, 0.087
294.400, 0.092
294.500, 0.087
294.600, 0.098
294.700, 0.093
294.800, 0.085
294.900, 0.085
295.000, 0.094
295.100, 0.099
295.200, 0.096
295.300, 0.094
295.400, 0.087
295.500, 0.089
295.600, 0.088
295.700, 0.083
295.800, 0.084
295.900, 0.083
296.000, 0.088
296.100, 0.087
296.200, 0.092
296.300, 0.091
296.400, 0.084
296.500, 0.085
296.600, 0.088
296.700, 0.086
296.800, 0.094
296.900, 0.091
297.000, 0.095
297.100, 0.090
297.200, 0.086
297.300, 0.090
297.400, 0.091
297.500, 0.086
297.600, 0.088
297.700, 0.086
297.800, 0.100
297.900, 0.087
298.000, 0.085
298.100, 0.087
298.200, 0.085
298.300, 0.095
298.400, 0.084
298.500, 0.094
298.600, 0.086
298.700, 0.083
298.800, 0.089
298.900, 0.086
299.000, 0.085
299.100, 0.088
299.200, 0.090
299.300, 0.087
299.400, 0.094
299.500, 0.096
299.600, 0.089
299.700, 0.088
299.800, 0.087
299.900, 0.083
300.000, 0.097
300.100, 0.095
300.200, 0.084
300.300, 0.083
300.400, 0.090
300.500, 0.091
300.600, 0.090
300.700, 0.080
300.800, 0.081
300.900, 0.097
301.000, 0.092
301.100, 0.088
301.200, 0.085
301.300, 0.079
301.400, 0.084
301.500, 0.084
301.600, 0.086
301.700, 0.092
301.800, 0.099
301.900, 0.089
302.000, 0.080
302.100, 0.089
302.200, 0.083
302.300, 0.090
302.400, 0.082
302.500, 0.083
302.600, 0.093
302.700, 0.084
302.800, 0.094
302.900, 0.093
303.000, 0.095
303.100, 0.101
303.200, 0.092
303.300, 0.088
303.400, 0.084
303.500, 0.090
303.600, 0.084
303.700, 0.083
303.800, 0.080
303.900, 0.086
304.000, 0.088
304.100, 0.085
304.200, 0.093
304.300, 0.085
304.400, 0.098
304.500, 0.091
304.600, 0.081
304.700, 0.087
304.800, 0.101
304.900, 0.084
305.000, 0.094
305.100, 0.091
305.200, 0.085
305.300, 0.093
305.400, 0.084
305.500, 0.096
305.600, 0.089
305.700, 0.085
305.800, 0.085
305.900, 0.090
306.000, 0.088
306.100, 0.092
306.200, 0.086
306.300, 0.091
306.400, 0.086
306.500, 0.086
306.600, 0.085
306.700, 0.087
306.800, 0.091
306.900, 0.087
307.000, 0.096
307.100, 0.089
307.200, 0.083
307.300, 0.083
307.400, 0.082
307.500, 0.082
307.600, 0.085
307.700, 0.094
307.800, 0.089
307.900, 0.088
308.000, 0.084
308.100, 0.091
308.200, 0.093
308.300, 0.094
308.400, 0.093
308.500, 0.089
308.600, 0.098
308.700, 0.090
308.800, 0.089
308.900, 0.089
309.000, 0.084
309.100, 0.089
309.200, 0.084
309.300, 0.090
309.400, 0.083
309.500, 0.086
309.600, 0.085
309.700, 0.085
309.800, 0.086
309.900, 0.094
310.000, 0.085
310.100, 0.084
310.200, 0.085
310.300, 0.088
310.400, 0.088
310.500, 0.090
310.600, 0.080
310.700, 0.081
310.800, 0.082
310.900, 0.092
311.000, 0.087
311.100, 0.087
311.200, 0.089
311.300, 0.080
311.400, 0.089
311.500, 0.081
311.600, 0.083
311.700, 0.081
311.800, 0.086
311.900, 0.083
312.000, 0.095
312.100, 0.081
312.200, 0.085
312.300, 0.081
312.400, 0.086
312.500, 0.092
312.600, 0.085
312.700, 0.089
312.800, 0.087
312.900, 0.091
313.000, 0.091
313.100, 0.090
313.200, 0.089
313.300, 0.092
313.400, 0.094
313.500, 0.091
313.600, 0.081
313.700, 0.088
313.800, 0.084
313.900, 0.092
314.000, 0.095
314.100, 0.096
314.200, 0.093
314.300, 0.087
314.400, 0.092
314.500, 0.102
314.600, 0.097
314.700, 0.096
314.800, 0.092
314.900, 0.092
315.000, 0.089
315.100, 0.083
315.200, 0.082
315.300, 0.084
315.400, 0.081
315.500, 0.081
315.600, 0.081
315.700, 0.080
315.800, 0.085
315.900, 0.086
316.000, 0.078
316.100, 0.086
316.200, 0.092
316.300, 0.094
316.400, 0.091
316.500, 0.094
316.600, 0.091
316.700, 0.090
316.800, 0.090
316.900, 0.083
317.000, 0.080
317.100, 0.097
317.200, 0.093
317.300, 0.091
317.400, 0.085
317.500, 0.089
317.600, 0.082
317.700, 0.091
317.800, 0.086
317.900, 0.083
318.000, 0.094
318.100, 0.087
318.200, 0.084
318.300, 0.085
318.400, 0.095
318.500, 0.087
318.600, 0.084
318.700, 0.087
318.800, 0.089
318.900, 0.090
319.000, 0.095
319.100, 0.091
319.200, 0.095
319.300, 0.097
319.400, 0.090
319.500, 0.095
319.600, 0.102
319.700, 0.095
319.800, 0.085
319.900, 0.087
320.000, 0.088
320.100, 0.087
320.200, 0.087
320.300, 0.087
320.400, 0.085
320.500, 0.083
320.600, 0.085
320.700, 0.084
320.800, 0.091
320.900, 0.088
321.000, 0.091
321.100, 0.082
321.200, 0.093
321.300, 0.093
321.400, 0.092
321.500, 0.098
321.600, 0.089
321.700, 0.096
321.800, 0.095
321.900, 0.085
322.000, 0.090
322.100, 0.092
322.200, 0.094
322.300, 0.093
322.400, 0.090
322.500, 0.089
322.600, 0.086
322.700, 0.092
322.800, 0.094
322.900, 0.094
323.000, 0.090
323.100, 0.082
323.200, 0.097
323.300, 0.091
323.400, 0.093
323.500, 0.091
323.600, 0.101
323.700, 0.099
323.800, 0.103
323.900, 0.100
324.000, 0.101
324.100, 0.098
324.200, 0.098
324.300, 0.094
324.400, 0.101
324.500, 0.092
324.600, 0.099
324.700, 0.100
324.800, 0.095
324.900, 0.101
325.000, 0.096
325.100, 0.096
325.200, 0.088
325.300, 0.096
325.400, 0.096
325.500, 0.097
325.600, 0.100
325.700, 0.094
325.800, 0.096
325.900, 0.101
326.000, 0.095
326.100, 0.091
326.200, 0.094
326.300, 0.098
326.400, 0.099
326.500, 0.098
326.600, 0.111
326.700, 0.092
326.800, 0.092
326.900, 0.098
327.000, 0.096
327.100, 0.094
327.200, 0.100
327.300, 0.093
327.400, 0.091
327.500, 0.100
327.600, 0.098
327.700, 0.101
327.800, 0.095
327.900, 0.092
328.000, 0.099
328.100, 0.102
328.200, 0.099
328.300, 0.095
328.400, 0.105
328.500, 0.100
328.600, 0.089
328.700, 0.100
328.800, 0.098
328.900, 0.093
329.000, 0.089
329.100, 0.095
329.200, 0.094
329.300, 0.094
329.400, 0.098
329.500, 0.089
329.600, 0.090
329.700, 0.098
329.800, 0.092
329.900, 0.083
330.000, 0.092
330.100, 0.087
330.200, 0.093
330.300, 0.094
330.400, 0.110
330.500, 0.093
330.600, 0.096
330.700, 0.091
330.800, 0.097
330.900, 0.093
331.000, 0.098
331.100, 0.101
331.200, 0.099
331.300, 0.104
331.400, 0.096
331.500, 0.095
331.600, 0.092
331.700, 0.089
331.800, 0.102
331.900, 0.105
332.000, 0.100
332.100, 0.095
332.200, 0.097
332.300, 0.101
332.400, 0.094
332.500, 0.097
332.600, 0.095
332.700, 0.096
332.800, 0.090
332.900, 0.094
333.000, 0.089
333.100, 0.111
333.200, 0.099
333.300, 0.104
333.400, 0.096
333.500, 0.096
333.600, 0.099
333.700, 0.089
333.800, 0.093
333.900, 0.094
334.000, 0.102
334.100, 0.100
334.200, 0.104
334.300, 0.094
334.400, 0.098
334.500, 0.105
334.600, 0.098
334.700, 0.098
334.800, 0.101
334.900, 0.093
335.000, 0.104
335.100, 0.097
335.200, 0.096
335.300, 0.091
335.400, 0.097
335.500, 0.104
335.600, 0.098
335.700, 0.106
335.800, 0.103
335.900, 0.094
336.000, 0.091
336.100, 0.094
336.200, 0.096
336.300, 0.103
336.400, 0.098
336.500, 0.101
336.600, 0.092
336.700, 0.106
336.800, 0.094
336.900, 0.103
337.000, 0.096
337.100, 0.097
337.200, 0.094
337.300, 0.094
337.400, 0.090
337.500, 0.089
337.600, 0.093
337.700, 0.092
337.800, 0.103
337.900, 0.104
338.000, 0.098
338.100, 0.104
338.200, 0.103
338.300, 0.093
338.400, 0.102
338.500, 0.099
338.600, 0.101
338.700, 0.112
338.800, 0.109
338.900, 0.108
339.000, 0.100
339.100, 0.096
339.200, 0.103
339.300, 0.096
339.400, 0.096
339.500, 0.094
339.600, 0.093
339.700, 0.105
339.800, 0.093
339.900, 0.089
340.000, 0.103
340.100, 0.099
340.200, 0.094
340.300, 0.090
340.400, 0.104
340.500, 0.093
340.600, 0.100
340.700, 0.100
340.800, 0.098
340.900, 0.100
341.000, 0.096
341.100, 0.101
341.200, 0.109
341.300, 0.111
341.400, 0.110
341.500, 0.103
341.600, 0.096
341.700, 0.104
341.800, 0.102
341.900, 0.104
342.000, 0.107
342.100, 0.103
342.200, 0.094
342.300, 0.106
342.400, 0.095
342.500, 0.092
342.600, 0.090
342.700, 0.085
342.800, 0.081
342.900, 0.085
343.000, 0.085
343.100, 0.085
343.200, 0.094
343.300, 0.089
343.400, 0.094
343.500, 0.088
343.600, 0.093
343.700, 0.095
343.800, 0.094
343.900, 0.089
344.000, 0.087
344.100, 0.095
344.200, 0.098
344.300, 0.094
344.400, 0.090
344.500, 0.106
344.600, 0.100
344.700, 0.090
344.800, 0.092
344.900, 0.095
345.000, 0.103
345.100, 0.104
345.200, 0.096
345.300, 0.093
345.400, 0.096
345.500, 0.092
345.600, 0.101
345.700, 0.101
345.800, 0.109
345.900, 0.100
346.000, 0.105
346.100, 0.101
346.200, 0.097
346.300, 0.102
346.400, 0.092
346.500, 0.097
346.600, 0.098
346.700, 0.098
346.800, 0.099
346.900, 0.100
347.000, 0.100
347.100, 0.099
347.200, 0.091
347.300, 0.093
347.400, 0.103
347.500, 0.097
347.600, 0.089
347.700, 0.093
347.800, 0.098
347.900, 0.096
348.000, 0.097
348.100, 0.095
348.200, 0.101
348.300, 0.107
348.400, 0.100
348.500, 0.113
348.600, 0.103
348.700, 0.103
348.800, 0.090
348.900, 0.096
349.000, 0.097
349.100, 0.098
349.200, 0.092
349.300, 0.103
349.400, 0.107
349.500, 0.105
349.600, 0.094
349.700, 0.097
349.800, 0.100
349.900, 0.094
350.000, 0.096
350.100, 0.104
350.200, 0.095
350.300, 0.101
350.400, 0.099
350.500, 0.099
350.600, 0.093
350.700, 0.105
350.800, 0.093
350.900, 0.101
351.000, 0.106
351.100, 0.091
351.200, 0.091
351.300, 0.089
351.400, 0.090
351.500, 0.092
351.600, 0.098
351.700, 0.098
351.800, 0.099
351.900, 0.099
352.000, 0.106
352.100, 0.103
352.200, 0.118
352.300, 0.098
352.400, 0.095
352.500, 0.101
352.600, 0.096
352.700, 0.085
352.800, 0.089
352.900, 0.084
353.000, 0.097
353.100, 0.088
353.200, 0.090
353.300, 0.095
353.400, 0.098
353.500, 0.097
353.600, 0.097
353.700, 0.107
353.800, 0.095
353.900, 0.101
354.000, 0.092
354.100, 0.104
354.200, 0.090
354.300, 0.096
354.400, 0.097
354.500, 0.103
354.600, 0.089
354.700, 0.090
354.800, 0.090
354.900, 0.090
355.000, 0.099
355.100, 0.095
355.200, 0.093
355.300, 0.087
355.400, 0.104
355.500, 0.099
355.600, 0.111
355.700, 0.091
355.800, 0.094
355.900, 0.095
356.000, 0.105
356.100, 0.095
356.200, 0.102
356.300, 0.097
356.400, 0.099
356.500, 0.093
356.600, 0.097
356.700, 0.089
356.800, 0.093
356.900, 0.090
357.000, 0.094
357.100, 0.099
357.200, 0.095
357.300, 0.097
357.400, 0.097
357.500, 0.087
357.600, 0.101
357.700, 0.090
357.800, 0.091
357.900, 0.096
358.000, 0.088
358.100, 0.088
358.200, 0.095
358.300, 0.091
358.400, 0.096
358.500, 0.090
358.600, 0.097
358.700, 0.095
358.800, 0.100
358.900, 0.086
359.000, 0.091
359.100, 0.094
359.200, 0.100
359.300, 0.091
359.400, 0.092
359.500, 0.094
359.600, 0.084
359.700, 0.081
359.800, 0.092
359.900, 0.082
360.000, 0.085
360.100, 0.083
360.200, 0.081
360.300, 0.083
360.400, 0.089
360.500, 0.086
360.600, 0.088
360.700, 0.086
360.800, 0.100
360.900, 0.091
361.000, 0.092
361.100, 0.095
361.200, 0.090
361.300, 0.091
361.400, 0.091
361.500, 0.091
361.600, 0.093
361.700, 0.098
361.800, 0.095
361.900, 0.087
362.000, 0.091
362.100, 0.098
362.200, 0.096
362.300, 0.095
362.400, 0.090
362.500, 0.085
362.600, 0.093
362.700, 0.090
362.800, 0.089
362.900, 0.092
363.000, 0.089
363.100, 0.094
363.200, 0.087
363.300, 0.094
363.400, 0.091
363.500, 0.092
363.600, 0.095
363.700, 0.097
363.800, 0.090
363.900, 0.100
364.000, 0.096
364.100, 0.100
364.200, 0.099
364.300, 0.105
364.400, 0.099
364.500, 0.095
364.600, 0.096
364.700, 0.100
364.800, 0.099
364.900, 0.104
365.000, 0.097
365.100, 0.102
365.200, 0.100
365.300, 0.100
365.400, 0.097
365.500, 0.097
365.600, 0.090
365.700, 0.093
365.800, 0.092
365.900, 0.097
366.000, 0.091
366.100, 0.102
366.200, 0.103
366.300, 0.096
366.400, 0.099
366.500, 0.104
366.600, 0.111
366.700, 0.103
366.800, 0.098
366.900, 0.103
367.000, 0.108
367.100, 0.107
367.200, 0.102
367.300, 0.103
367.400, 0.095
367.500, 0.102
367.600, 0.111
367.700, 0.112
367.800, 0.108
367.900, 0.103
368.000, 0.107
368.100, 0.103
368.200, 0.097
368.300, 0.097
368.400, 0.096
368.500, 0.100
368.600, 0.091
368.700, 0.097
368.800, 0.102
368.900, 0.097
369.000, 0.100
369.100, 0.099
369.200, 0.101
369.300, 0.101
369.400, 0.097
369.500, 0.105
369.600, 0.095
369.700, 0.096
369.800, 0.097
369.900, 0.095
370.000, 0.096
370.100, 0.092
370.200, 0.102
370.300, 0.107
370.400, 0.094
370.500, 0.097
370.600, 0.105
370.700, 0.093
370.800, 0.096
370.900, 0.095
371.000, 0.097
371.100, 0.099
371.200, 0.101
371.300, 0.097
371.400, 0.099
371.500, 0.101
371.600, 0.104
371.700, 0.109
371.800, 0.105
371.900, 0.109
372.000, 0.098
372.100, 0.096
372.200, 0.107
372.300, 0.106
372.400, 0.099
372.500, 0.100
372.600, 0.102
372.700, 0.092
372.800, 0.103
372.900, 0.103
373.000, 0.099
373.100, 0.094
373.200, 0.102
373.300, 0.097
373.400, 0.102
373.500, 0.098
373.600, 0.091
373.700, 0.097
373.800, 0.107
373.900, 0.099
374.000, 0.104
374.100, 0.105
374.200, 0.100
374.300, 0.096
374.400, 0.097
374.500, 0.104
374.600, 0.102
374.700, 0.097
374.800, 0.103
374.900, 0.097
375.000, 0.105
375.100, 0.107
375.200, 0.108
375.300, 0.110
375.400, 0.109
375.500, 0.096
375.600, 0.092
375.700, 0.093
375.800, 0.089
375.900, 0.098
376.000, 0.102
376.100, 0.088
376.200, 0.102
376.300, 0.101
376.400, 0.098
376.500, 0.093
376.600, 0.095
376.700, 0.095
376.800, 0.100
376.900, 0.100
377.000, 0.096
377.100, 0.088
377.200, 0.091
377.300, 0.091
377.400, 0.095
377.500, 0.088
377.600, 0.096
377.700, 0.102
377.800, 0.097
377.900, 0.092
378.000, 0.090
378.100, 0.094
378.200, 0.092
378.300, 0.089
378.400, 0.080
378.500, 0.089
378.600, 0.086
378.700, 0.096
378.800, 0.100
378.900, 0.094
379.000, 0.101
379.100, 0.092
379.200, 0.093
379.300, 0.086
379.400, 0.092
379.500, 0.087
379.600, 0.090
379.700, 0.094
379.800, 0.094
379.900, 0.102
380.000, 0.093
380.100, 0.092
380.200, 0.094
380.300, 0.092
380.400, 0.085
380.500, 0.091
380.600, 0.090
380.700, 0.088
380.800, 0.089
380.900, 0.103
381.000, 0.086
381.100, 0.087
381.200, 0.098
381.300, 0.092
381.400, 0.100
381.500, 0.092
381.600, 0.107
381.700, 0.102
381.800, 0.104
381.900, 0.093
382.000, 0.098
382.100, 0.101
382.200, 0.098
382.300, 0.093
382.400, 0.099
382.500, 0.086
382.600, 0.092
382.700, 0.083
382.800, 0.092
382.900, 0.093
383.000, 0.084
383.100, 0.082
383.200, 0.090
383.300, 0.092
383.400, 0.091
383.500, 0.091
383.600, 0.090
383.700, 0.088
383.800, 0.087
383.900, 0.091
384.000, 0.091
384.100, 0.089
384.200, 0.096
384.300, 0.089
384.400, 0.083
384.500, 0.090
384.600, 0.095
384.700, 0.096
384.800, 0.091
384.900, 0.095
385.000, 0.091
385.100, 0.095
385.200, 0.092
385.300, 0.100
385.400, 0.096
385.500, 0.084
385.600, 0.091
385.700, 0.098
385.800, 0.086
385.900, 0.087
386.000, 0.093
386.100, 0.096
386.200, 0.088
386.300, 0.087
386.400, 0.093
386.500, 0.090
386.600, 0.085
386.700, 0.082
386.800, 0.085
386.900, 0.083
387.000, 0.087
387.100, 0.101
387.200, 0.090
387.300, 0.091
387.400, 0.086
387.500, 0.089
387.600, 0.086
387.700, 0.095
387.800, 0.095
387.900, 0.084
388.000, 0.093
388.100, 0.089
388.200, 0.089
388.300, 0.089
388.400, 0.087
388.500, 0.090
388.600, 0.099
388.700, 0.090
388.800, 0.086
388.900, 0.088
389.000, 0.090
389.100, 0.091
389.200, 0.097
389.300, 0.096
389.400, 0.084
389.500, 0.084
389.600, 0.093
389.700, 0.091
389.800, 0.092
389.900, 0.093
390.000, 0.090
390.100, 0.091
390.200, 0.093
390.300, 0.098
390.400, 0.096
390.500, 0.101
390.600, 0.103
390.700, 0.103
390.800, 0.100
390.900, 0.097
391.000, 0.095
391.100, 0.088
391.200, 0.087
391.300, 0.088
391.400, 0.085
391.500, 0.093
391.600, 0.097
391.700, 0.090
391.800, 0.094
391.900, 0.095
392.000, 0.094
392.100, 0.093
392.200, 0.097
392.300, 0.097
392.400, 0.099
392.500, 0.103
392.600, 0.095
392.700, 0.092
392.800, 0.100
392.900, 0.087
393.000, 0.100
393.100, 0.094
393.200, 0.092
393.300, 0.094
393.400, 0.089
393.500, 0.093
393.600, 0.088
393.700, 0.098
393.800, 0.098
393.900, 0.100
394.000, 0.095
394.100, 0.096
394.200, 0.088
394.300, 0.103
394.400, 0.096
394.500, 0.095
394.600, 0.094
394.700, 0.106
394.800, 0.106
394.900, 0.092
395.000, 0.095
395.100, 0.096
395.200, 0.097
395.300, 0.103
395.400, 0.097
395.500, 0.094
395.600, 0.099
395.700, 0.099
395.800, 0.100
395.900, 0.092
396.000, 0.095
396.100, 0.096
396.200, 0.088
396.300, 0.093
396.400, 0.089
396.500, 0.093
396.600, 0.089
396.700, 0.091
396.800, 0.091
396.900, 0.087
397.000, 0.092
397.100, 0.088
397.200, 0.100
397.300, 0.089
397.400, 0.088
397.500, 0.094
397.600, 0.089
397.700, 0.095
397.800, 0.090
397.900, 0.086
398.000, 0.087
398.100, 0.091
398.200, 0.098
398.300, 0.098
398.400, 0.088
398.500, 0.082
398.600, 0.090
398.700, 0.087
398.800, 0.088
398.900, 0.098
399.000, 0.091
399.100, 0.090
399.200, 0.106
399.300, 0.102
399.400, 0.103
399.500, 0.092
399.600, 0.092
399.700, 0.086
399.800, 0.096
399.900, 0.090
400.000, 0.105
400.100, 0.095
400.200, 0.094
400.300, 0.094
400.400, 0.092
400.500, 0.097
400.600, 0.105
400.700, 0.101
400.800, 0.098
400.900, 0.089
401.000, 0.097
401.100, 0.100
401.200, 0.098
401.300, 0.093
401.400, 0.089
401.500, 0.090
401.600, 0.095
401.700, 0.100
401.800, 0.091
401.900, 0.102
402.000, 0.098
402.100, 0.103
402.200, 0.098
402.300, 0.094
402.400, 0.095
402.500, 0.092
402.600, 0.094
402.700, 0.105
402.800, 0.094
402.900, 0.097
403.000, 0.101
403.100, 0.102
403.200, 0.097
403.300, 0.099
403.400, 0.102
403.500, 0.090
403.600, 0.095
403.700, 0.098
403.800, 0.096
403.900, 0.096
404.000, 0.094
404.100, 0.096
404.200, 0.100
404.300, 0.088
404.400, 0.093
404.500, 0.090
404.600, 0.099
404.700, 0.097
404.800, 0.094
404.900, 0.087
405.000, 0.097
405.100, 0.098
405.200, 0.093
405.300, 0.103
405.400, 0.095
405.500, 0.101
405.600, 0.090
405.700, 0.091
405.800, 0.097
405.900, 0.094
406.000, 0.102
406.100, 0.099
406.200, 0.094
406.300, 0.094
406.400, 0.093
406.500, 0.091
406.600, 0.100
406.700, 0.101
406.800, 0.098
406.900, 0.099
407.000, 0.106
407.100, 0.102
407.200, 0.111
407.300, 0.109
407.400, 0.110
407.500, 0.111
407.600, 0.106
407.700, 0.107
407.800, 0.105
407.900, 0.106
408.000, 0.106
408.100, 0.092
408.200, 0.100
408.300, 0.096
408.400, 0.091
408.500, 0.094
408.600, 0.097
408.700, 0.103
408.800, 0.091
408.900, 0.103
409.000, 0.101
409.100, 0.095
409.200, 0.092
409.300, 0.098
409.400, 0.108
409.500, 0.098
409.600, 0.094
409.700, 0.098
409.800, 0.091
409.900, 0.098
410.000, 0.103
410.100, 0.087
410.200, 0.095
410.300, 0.106
410.400, 0.092
410.500, 0.095
410.600, 0.104
410.700, 0.102
410.800, 0.109
410.900, 0.095
411.000, 0.091
411.100, 0.096
411.200, 0.093
411.300, 0.108
411.400, 0.097
411.500, 0.098
411.600, 0.097
411.700, 0.088
411.800, 0.089
411.900, 0.094
412.000, 0.094
412.100, 0.094
412.200, 0.091
412.300, 0.104
412.400, 0.104
412.500, 0.094
412.600, 0.095
412.700, 0.090
412.800, 0.103
412.900, 0.113
413.000, 0.105
413.100, 0.090
413.200, 0.094
413.300, 0.096
413.400, 0.097
413.500, 0.093
413.600, 0.088
413.700, 0.102
413.800, 0.090
413.900, 0.092
414.000, 0.092
414.100, 0.102
414.200, 0.098
414.300, 0.091
414.400, 0.089
414.500, 0.090
414.600, 0.090
414.700, 0.099
414.800, 0.090
414.900, 0.089
415.000, 0.082
415.100, 0.096
415.200, 0.089
415.300, 0.086
415.400, 0.084
415.500, 0.090
415.600, 0.094
415.700, 0.091
415.800, 0.085
415.900, 0.085
416.000, 0.095
416.100, 0.097
416.200, 0.096
416.300, 0.094
416.400, 0.095
416.500, 0.087
416.600, 0.094
416.700, 0.097
416.800, 0.087
416.900, 0.079
417.000, 0.089
417.100, 0.085
417.200, 0.096
417.300, 0.092
417.400, 0.087
417.500, 0.095
417.600, 0.094
417.700, 0.091
417.800, 0.089
417.900, 0.091
418.000, 0.096
418.100, 0.087
418.200, 0.098
418.300, 0.091
418.400, 0.094
418.500, 0.091
418.600, 0.097
418.700, 0.095
418.800, 0.092
418.900, 0.099
419.000, 0.094
419.100, 0.089
419.200, 0.089
419.300, 0.091
419.400, 0.098
419.500, 0.102
419.600, 0.092
419.700, 0.102
419.800, 0.110
419.900, 0.107
420.000, 0.093
420.100, 0.092
420.200, 0.093
420.300, 0.096
420.400, 0.089
420.500, 0.090
420.600, 0.081
420.700, 0.098
420.800, 0.086
420.900, 0.089
421.000, 0.100
421.100, 0.096
421.200, 0.099
421.300, 0.099
421.400, 0.091
421.500, 0.088
421.600, 0.084
421.700, 0.076
421.800, 0.090
421.900, 0.092
422.000, 0.089
422.100, 0.085
422.200, 0.087
422.300, 0.090
422.400, 0.092
422.500, 0.097
422.600, 0.085
422.700, 0.095
422.800, 0.096
422.900, 0.099
423.000, 0.082
423.100, 0.087
423.200, 0.091
423.300, 0.088
423.400, 0.093
423.500, 0.103
423.600, 0.089
423.700, 0.090
423.800, 0.097
423.900, 0.092
424.000, 0.099
424.100, 0.099
424.200, 0.093
424.300, 0.087
424.400, 0.092
424.500, 0.094
424.600, 0.089
424.700, 0.089
424.800, 0.094
424.900, 0.088
425.000, 0.092
425.100, 0.096
425.200, 0.096
425.300, 0.098
425.400, 0.083
425.500, 0.089
425.600, 0.089
425.700, 0.090
425.800, 0.091
425.900, 0.092
426.000, 0.099
426.100, 0.089
426.200, 0.089
426.300, 0.096
426.400, 0.097
426.500, 0.100
426.600, 0.095
426.700, 0.093
426.800, 0.089
426.900, 0.087
427.000, 0.092
427.100, 0.092
427.200, 0.113
427.300, 0.107
427.400, 0.103
427.500, 0.096
427.600, 0.099
427.700, 0.098
427.800, 0.096
427.900, 0.102
428.000, 0.107
428.100, 0.100
428.200, 0.093
428.300, 0.092
428.400, 0.089
428.500, 0.088
428.600, 0.095
428.700, 0.091
428.800, 0.093
428.900, 0.082
429.000, 0.096
429.100, 0.089
429.200, 0.093
429.300, 0.094
429.400, 0.101
429.500, 0.093
429.600, 0.088
429.700, 0.090
429.800, 0.091
429.900, 0.084
430.000, 0.093
430.100, 0.092
430.200, 0.084
430.300, 0.088
430.400, 0.096
430.500, 0.083
430.600, 0.091
430.700, 0.091
430.800, 0.084
430.900, 0.091
431.000, 0.102
431.100, 0.094
431.200, 0.092
431.300, 0.102
431.400, 0.090
431.500, 0.093
431.600, 0.092
431.700, 0.088
431.800, 0.101
431.900, 0.087
432.000, 0.095
432.100, 0.094
432.200, 0.091
432.300, 0.092
432.400, 0.086
432.500, 0.096
432.600, 0.097
432.700, 0.086
432.800, 0.094
432.900, 0.094
433.000, 0.096
433.100, 0.087
433.200, 0.089
433.300, 0.096
433.400, 0.093
433.500, 0.085
433.600, 0.089
433.700, 0.091
433.800, 0.089
433.900, 0.090
434.000, 0.095
434.100, 0.090
434.200, 0.095
434.300, 0.090
434.400, 0.097
434.500, 0.094
434.600, 0.088
434.700, 0.091
434.800, 0.087
434.900, 0.087
435.000, 0.089
435.100, 0.084
435.200, 0.092
435.300, 0.090
435.400, 0.093
435.500, 0.090
435.600, 0.084
435.700, 0.089
435.800, 0.090
435.900, 0.087
436.000, 0.096
436.100, 0.098
436.200, 0.092
436.300, 0.093
436.400, 0.094
436.500, 0.089
436.600, 0.093
436.700, 0.098
436.800, 0.095
436.900, 0.082
437.000, 0.091
437.100, 0.097
437.200, 0.088
437.300, 0.090
437.400, 0.096
437.500, 0.097
437.600, 0.097
437.700, 0.095
437.800, 0.090
437.900, 0.091
438.000, 0.100
438.100, 0.086
438.200, 0.096
438.300, 0.098
438.400, 0.101
438.500, 0.106
438.600, 0.105
438.700, 0.092
438.800, 0.100
438.900, 0.104
439.000, 0.096
439.100, 0.104
439.200, 0.097
439.300, 0.094
439.400, 0.093
439.500, 0.099
439.600, 0.096
439.700, 0.102
439.800, 0.089
439.900, 0.097
440.000, 0.094
440.100, 0.103
440.200, 0.107
440.300, 0.097
440.400, 0.096
440.500, 0.097
440.600, 0.110
440.700, 0.104
440.800, 0.101
440.900, 0.103
441.000, 0.095
441.100, 0.110
441.200, 0.099
441.300, 0.103
441.400, 0.103
441.500, 0.103
441.600, 0.105
441.700, 0.108
441.800, 0.101
441.900, 0.100
442.000, 0.096
442.100, 0.109
442.200, 0.111
442.300, 0.110
442.400, 0.106
442.500, 0.100
442.600, 0.097
442.700, 0.097
442.800, 0.106
442.900, 0.092
443.000, 0.094
443.100, 0.104
443.200, 0.091
443.300, 0.101
443.400, 0.099
443.500, 0.101
443.600, 0.092
443.700, 0.092
443.800, 0.094
443.900, 0.101
444.000, 0.107
444.100, 0.098
444.200, 0.103
444.300, 0.096
444.400, 0.094
444.500, 0.105
444.600, 0.102
444.700, 0.100
444.800, 0.103
444.900, 0.105
445.000, 0.099
445.100, 0.106
445.200, 0.128
445.300, 0.113
445.400, 0.116
445.500, 0.104
445.600, 0.107
445.700, 0.122
445.800, 0.105
445.900, 0.102
446.000, 0.112
446.100, 0.106
446.200, 0.105
446.300, 0.093
446.400, 0.100
446.500, 0.102
446.600, 0.094
446.700, 0.091
446.800, 0.100
446.900, 0.094
447.000, 0.106
447.100, 0.103
447.200, 0.094
447.300, 0.103
447.400, 0.097
447.500, 0.105
447.600, 0.100
447.700, 0.096
447.800, 0.092
447.900, 0.096
448.000, 0.088
448.100, 0.094
448.200, 0.091
448.300, 0.102
448.400, 0.103
448.500, 0.096
448.600, 0.086
448.700, 0.092
448.800, 0.103
448.900, 0.089
449.000, 0.083
449.100, 0.093
449.200, 0.096
449.300, 0.089
449.400, 0.084
449.500, 0.087
449.600, 0.093
449.700, 0.090
449.800, 0.087
449.900, 0.090
450.000, 0.095
450.100, 0.096
450.200, 0.088
450.300, 0.093
450.400, 0.089
450.500, 0.097
450.600, 0.087
450.700, 0.094
450.800, 0.094
450.900, 0.097
451.000, 0.095
451.100, 0.095
451.200, 0.088
451.300, 0.088
451.400, 0.095
451.500, 0.092
451.600, 0.092
451.700, 0.101
451.800, 0.093
451.900, 0.097
452.000, 0.081
452.100, 0.092
452.200, 0.093
452.300, 0.103
452.400, 0.098
452.500, 0.091
452.600, 0.091
452.700, 0.089
452.800, 0.093
452.900, 0.088
453.000, 0.097
453.100, 0.089
453.200, 0.095
453.300, 0.097
453.400, 0.087
453.500, 0.081
453.600, 0.094
453.700, 0.097
453.800, 0.093
453.900, 0.091
454.000, 0.082
454.100, 0.082
454.200, 0.084
454.300, 0.083
454.400, 0.077
454.500, 0.083
454.600, 0.080
454.700, 0.086
454.800, 0.087
454.900, 0.079
455.000, 0.081
455.100, 0.087
455.200, 0.083
455.300, 0.081
455.400, 0.091
455.500, 0.085
455.600, 0.091
455.700, 0.077
455.800, 0.083
455.900, 0.094
456.000, 0.086
456.100, 0.088
456.200, 0.081
456.300, 0.076
456.400, 0.081
456.500, 0.074
456.600, 0.081
456.700, 0.086
456.800, 0.089
456.900, 0.091
457.000, 0.086
457.100, 0.088
457.200, 0.082
457.300, 0.081
457.400, 0.082
457.500, 0.080
457.600, 0.094
457.700, 0.087
457.800, 0.098
457.900, 0.087
458.000, 0.086
458.100, 0.085
458.200, 0.091
458.300, 0.089
458.400, 0.080
458.500, 0.082
458.600, 0.089
458.700, 0.086
458.800, 0.094
458.900, 0.094
459.000, 0.086
459.100, 0.089
459.200, 0.089
459.300, 0.088
459.400, 0.088
459.500, 0.095
459.600, 0.086
459.700, 0.078
459.800, 0.075
459.900, 0.087
460.000, 0.078
460.100, 0.089
460.200, 0.088
460.300, 0.091
460.400, 0.089
460.500, 0.082
460.600, 0.083
460.700, 0.081
460.800, 0.087
460.900, 0.078
461.000, 0.078
461.100, 0.084
461.200, 0.089
461.300, 0.087
461.400, 0.090
461.500, 0.087
461.600, 0.089
461.700, 0.083
461.800, 0.084
461.900, 0.084
462.000, 0.085
462.100, 0.095
462.200, 0.101
462.300, 0.099
462.400, 0.092
462.500, 0.089
462.600, 0.090
462.700, 0.091
462.800, 0.094
462.900, 0.100
463.000, 0.098
463.100, 0.095
463.200, 0.093
463.300, 0.096
463.400, 0.087
463.500, 0.082
463.600, 0.088
463.700, 0.093
463.800, 0.099
463.900, 0.086
464.000, 0.091
464.100, 0.091
464.200, 0.090
464.300, 0.084
464.400, 0.086
464.500, 0.094
464.600, 0.098
464.700, 0.093
464.800, 0.091
464.900, 0.084
465.000, 0.089
465.100, 0.086
465.200, 0.084
465.300, 0.093
465.400, 0.097
465.500, 0.092
465.600, 0.088
465.700, 0.079
465.800, 0.085
465.900, 0.086
466.000, 0.096
466.100, 0.092
466.200, 0.083
466.300, 0.084
466.400, 0.082
466.500, 0.085
466.600, 0.083
466.700, 0.077
466.800, 0.079
466.900, 0.087
467.000, 0.082
467.100, 0.077
467.200, 0.083
467.300, 0.096
467.400, 0.095
467.500, 0.092
467.600, 0.090
467.700, 0.086
467.800, 0.091
467.900, 0.083
468.000, 0.085
468.100, 0.086
468.200, 0.083
468.300, 0.086
468.400, 0.092
468.500, 0.089
468.600, 0.091
468.700, 0.086
468.800, 0.094
468.900, 0.084
469.000, 0.100
469.100, 0.087
469.200, 0.092
469.300, 0.093
469.400, 0.086
469.500, 0.088
469.600, 0.086
469.700, 0.090
469.800, 0.098
469.900, 0.095
470.000, 0.096
470.100, 0.094
470.200, 0.081
470.300, 0.095
470.400, 0.088
470.500, 0.090
470.600, 0.084
470.700, 0.089
470.800, 0.092
470.900, 0.089
471.000, 0.093
471.100, 0.097
471.200, 0.084
471.300, 0.092
471.400, 0.091
471.500, 0.086
471.600, 0.087
471.700, 0.086
471.800, 0.082
471.900, 0.081
472.000, 0.091
472.100, 0.084
472.200, 0.088
472.300, 0.087
472.400, 0.085
472.500, 0.089
472.600, 0.087
472.700, 0.089
472.800, 0.090
472.900, 0.093
473.000, 0.085
473.100, 0.098
473.200, 0.085
473.300, 0.089
473.400, 0.091
473.500, 0.093
473.600, 0.092
473.700, 0.091
473.800, 0.094
473.900, 0.088
474.000, 0.090
474.100, 0.089
474.200, 0.084
474.300, 0.088
474.400, 0.088
474.500, 0.098
474.600, 0.095
474.700, 0.089
474.800, 0.098
474.900, 0.095
475.000, 0.089
475.100, 0.092
475.200, 0.091
475.300, 0.090
475.400, 0.096
475.500, 0.094
475.600, 0.093
475.700, 0.093
475.800, 0.091
475.900, 0.089
476.000, 0.088
476.100, 0.098
476.200, 0.090
476.300, 0.087
476.400, 0.091
476.500, 0.097
476.600, 0.102
476.700, 0.095
476.800, 0.096
476.900, 0.098
477.000, 0.097
477.100, 0.091
477.200, 0.084
477.300, 0.084
477.400, 0.096
477.500, 0.092
477.600, 0.093
477.700, 0.096
477.800, 0.083
477.900, 0.094
478.000, 0.086
478.100, 0.092
478.200, 0.088
478.300, 0.086
478.400, 0.087
478.500, 0.091
478.600, 0.100
478.700, 0.086
478.800, 0.089
478.900, 0.081
479.000, 0.087
479.100, 0.091
479.200, 0.085
479.300, 0.085
479.400, 0.084
479.500, 0.085
479.600, 0.085
479.700, 0.091
479.800, 0.092
479.900, 0.089
480.000, 0.094
480.100, 0.084
480.200, 0.094
480.300, 0.097
480.400, 0.092
480.500, 0.093
480.600, 0.092
480.700, 0.104
480.800, 0.095
480.900, 0.089
481.000, 0.096
481.100, 0.091
481.200, 0.096
481.300, 0.095
481.400, 0.092
481.500, 0.087
481.600, 0.087
481.700, 0.095
481.800, 0.089
481.900, 0.091
482.000, 0.096
482.100, 0.085
482.200, 0.085
482.300, 0.088
482.400, 0.083
482.500, 0.094
482.600, 0.088
482.700, 0.089
482.800, 0.087
482.900, 0.091
483.000, 0.098
483.100, 0.099
483.200, 0.096
483.300, 0.086
483.400, 0.097
483.500, 0.093
483.600, 0.094
483.700, 0.085
483.800, 0.096
483.900, 0.091
484.000, 0.093
484.100, 0.100
484.200, 0.091
484.300, 0.094
484.400, 0.095
484.500, 0.085
484.600, 0.095
484.700, 0.102
484.800, 0.091
484.900, 0.098
485.000, 0.094
485.100, 0.097
485.200, 0.092
485.300, 0.088
485.400, 0.090
485.500, 0.099
485.600, 0.079
485.700, 0.089
485.800, 0.101
485.900, 0.094
486.000, 0.092
486.100, 0.097
486.200, 0.091
486.300, 0.085
486.400, 0.087
486.500, 0.086
486.600, 0.093
486.700, 0.094
486.800, 0.090
486.900, 0.083
487.000, 0.087
487.100, 0.083
487.200, 0.083
487.300, 0.089
487.400, 0.084
487.500, 0.083
487.600, 0.079
487.700, 0.083
487.800, 0.086
487.900, 0.090
488.000, 0.084
488.100, 0.082
488.200, 0.085
488.300, 0.088
488.400, 0.087
488.500, 0.086
488.600, 0.086
488.700, 0.082
488.800, 0.088
488.900, 0.089
489.000, 0.082
489.100, 0.090
489.200, 0.090
489.300, 0.086
489.400, 0.089
489.500, 0.083
489.600, 0.092
489.700, 0.091
489.800, 0.086
489.900, 0.096
490.000, 0.088
490.100, 0.084
490.200, 0.085
490.300, 0.095
490.400, 0.092
490.500, 0.083
490.600, 0.085
490.700, 0.079
490.800, 0.086
490.900, 0.083
491.000, 0.086
491.100, 0.085
491.200, 0.101
491.300, 0.086
491.400, 0.094
491.500, 0.087
491.600, 0.086
491.700, 0.087
491.800, 0.090
491.900, 0.088
492.000, 0.088
492.100, 0.094
492.200, 0.086
492.300, 0.099
492.400, 0.092
492.500, 0.081
492.600, 0.087
492.700, 0.088
492.800, 0.092
492.900, 0.086
493.000, 0.083
493.100, 0.089
493.200, 0.087
493.300, 0.088
493.400, 0.083
493.500, 0.086
493.600, 0.085
493.700, 0.094
493.800, 0.090
493.900, 0.096
494.000, 0.079
494.100, 0.077
494.200, 0.078
494.300, 0.083
494.400, 0.089
494.500, 0.090
494.600, 0.086
494.700, 0.093
494.800, 0.094
494.900, 0.087
495.000, 0.088
495.100, 0.088
495.200, 0.094
495.300, 0.089
495.400, 0.084
495.500, 0.087
495.600, 0.086
495.700, 0.081
495.800, 0.080
495.900, 0.088
496.000, 0.089
496.100, 0.086
496.200, 0.085
496.300, 0.089
496.400, 0.080
496.500, 0.088
496.600, 0.099
496.700, 0.091
496.800, 0.080
496.900, 0.091
497.000, 0.093
497.100, 0.096
497.200, 0.096
497.300, 0.081
497.400, 0.091
497.500, 0.090
497.600, 0.091
497.700, 0.096
497.800, 0.094
497.900, 0.094
498.000, 0.096
498.100, 0.103
498.200, 0.095
498.300, 0.095
498.400, 0.096
498.500, 0.092
498.600, 0.087
498.700, 0.076
498.800, 0.087
498.900, 0.081
499.000, 0.086
499.100, 0.096
499.200, 0.096
499.300, 0.096
499.400, 0.102
499.500, 0.103
499.600, 0.096
499.700, 0.087
499.800, 0.091
499.900, 0.096
500.000, 0.096
500.100, 0.094
500.200, 0.086
500.300, 0.091
500.400, 0.089
500.500, 0.088
500.600, 0.098
500.700, 0.097
500.800, 0.099
500.900, 0.095
501.000, 0.093
501.100, 0.085
501.200, 0.090
501.300, 0.083
501.400, 0.087
501.500, 0.083
501.600, 0.090
501.700, 0.090
501.800, 0.089
501.900, 0.091
502.000, 0.088
502.100, 0.095
502.200, 0.097
502.300, 0.097
502.400, 0.094
502.500, 0.096
502.600, 0.086
502.700, 0.099
502.800, 0.091
502.900, 0.097
503.000, 0.085
503.100, 0.089
503.200, 0.102
503.300, 0.091
503.400, 0.088
503.500, 0.086
503.600, 0.095
503.700, 0.098
503.800, 0.087
503.900, 0.082
504.000, 0.085
504.100, 0.085
504.200, 0.091
504.300, 0.089
504.400, 0.093
504.500, 0.086
504.600, 0.086
504.700, 0.084
504.800, 0.092
504.900, 0.082
505.000, 0.091
505.100, 0.084
505.200, 0.086
505.300, 0.082
505.400, 0.099
505.500, 0.089
505.600, 0.091
505.700, 0.090
505.800, 0.093
505.900, 0.089
506.000, 0.083
506.100, 0.087
506.200, 0.096
506.300, 0.091
506.400, 0.090
506.500, 0.092
506.600, 0.097
506.700, 0.099
506.800, 0.092
506.900, 0.094
507.000, 0.092
507.100, 0.088
507.200, 0.092
507.300, 0.089
507.400, 0.099
507.500, 0.093
507.600, 0.090
507.700, 0.090
507.800, 0.097
507.900, 0.096
508.000, 0.101
508.100, 0.100
508.200, 0.102
508.300, 0.106
508.400, 0.103
508.500, 0.093
508.600, 0.099
508.700, 0.092
508.800, 0.097
508.900, 0.099
509.000, 0.090
509.100, 0.084
509.200, 0.093
509.300, 0.087
509.400, 0.088
509.500, 0.097
509.600, 0.083
509.700, 0.088
509.800, 0.092
509.900, 0.093
510.000, 0.098
510.100, 0.088
510.200, 0.089
510.300, 0.093
510.400, 0.090
510.500, 0.085
510.600, 0.093
510.700, 0.090
510.800, 0.088
510.900, 0.101
511.000, 0.088
511.100, 0.098
511.200, 0.091
511.300, 0.097
511.400, 0.092
511.500, 0.103
511.600, 0.096
511.700, 0.089
511.800, 0.089
511.900, 0.091
512.000, 0.093
512.100, 0.092
512.200, 0.086
512.300, 0.088
512.400, 0.095
512.500, 0.097
512.600, 0.085
512.700, 0.091
512.800, 0.084
512.900, 0.086
513.000, 0.087
513.100, 0.086
513.200, 0.086
513.300, 0.088
513.400, 0.087
513.500, 0.087
513.600, 0.089
513.700, 0.089
513.800, 0.085
513.900, 0.086
514.000, 0.088
514.100, 0.088
514.200, 0.089
514.300, 0.103
514.400, 0.090
514.500, 0.090
514.600, 0.088
514.700, 0.088
514.800, 0.084
514.900, 0.087
515.000, 0.088
515.100, 0.091
515.200, 0.097
515.300, 0.099
515.400, 0.097
515.500, 0.085
515.600, 0.081
515.700, 0.083
515.800, 0.093
515.900, 0.089
516.000, 0.083
516.100, 0.092
516.200, 0.089
516.300, 0.088
516.400, 0.091
516.500, 0.089
516.600, 0.085
516.700, 0.093
516.800, 0.090
516.900, 0.087
517.000, 0.084
517.100, 0.088
517.200, 0.085
517.300, 0.089
517.400, 0.085
517.500, 0.086
517.600, 0.091
517.700, 0.084
517.800, 0.084
517.900, 0.088
518.000, 0.089
518.100, 0.089
518.200, 0.085
518.300, 0.093
518.400, 0.095
518.500, 0.092
518.600, 0.094
518.700, 0.093
518.800, 0.095
518.900, 0.095
519.000, 0.094
519.100, 0.096
519.200, 0.088
519.300, 0.095
519.400, 0.085
519.500, 0.093
519.600, 0.092
519.700, 0.087
519.800, 0.094
519.900, 0.097
520.000, 0.092
520.100, 0.081
520.200, 0.080
520.300, 0.082
520.400, 0.098
520.500, 0.084
520.600, 0.087
520.700, 0.093
520.800, 0.087
520.900, 0.087
521.000, 0.090
521.100, 0.083
521.200, 0.086
521.300, 0.098
521.400, 0.091
521.500, 0.095
521.600, 0.089
521.700, 0.095
521.800, 0.102
521.900, 0.096
522.000, 0.093
522.100, 0.087
522.200, 0.091
522.300, 0.094
522.400, 0.101
522.500, 0.101
522.600, 0.086
522.700, 0.092
522.800, 0.081
522.900, 0.087
523.000, 0.095
523.100, 0.087
523.200, 0.088
523.300, 0.090
523.400, 0.087
523.500, 0.093
523.600, 0.087
523.700, 0.090
523.800, 0.101
523.900, 0.085
524.000, 0.082
524.100, 0.093
524.200, 0.093
524.300, 0.081
524.400, 0.083
524.500, 0.083
524.600, 0.087
524.700, 0.088
524.800, 0.083
524.900, 0.081
525.000, 0.085
525.100, 0.084
525.200, 0.088
525.300, 0.096
525.400, 0.097
525.500, 0.087
525.600, 0.083
525.700, 0.088
525.800, 0.087
525.900, 0.090
526.000, 0.087
526.100, 0.095
526.200, 0.085
526.300, 0.092
526.400, 0.091
526.500, 0.098
526.600, 0.101
526.700, 0.084
526.800, 0.087
526.900, 0.094
527.000, 0.087
527.100, 0.092
527.200, 0.106
527.300, 0.096
527.400, 0.089
527.500, 0.098
527.600, 0.085
527.700, 0.094
527.800, 0.094
527.900, 0.094
528.000, 0.094
528.100, 0.094
528.200, 0.103
528.300, 0.097
528.400, 0.093
528.500, 0.091
528.600, 0.097
528.700, 0.101
528.800, 0.088
528.900, 0.085
529.000, 0.087
529.100, 0.092
529.200, 0.089
529.300, 0.088
529.400, 0.092
529.500, 0.092
529.600, 0.098
529.700, 0.096
529.800, 0.106
529.900, 0.101
530.000, 0.094
530.100, 0.083
530.200, 0.089
530.300, 0.086
530.400, 0.087
530.500, 0.100
530.600, 0.089
530.700, 0.087
530.800, 0.089
530.900, 0.099
531.000, 0.086
531.100, 0.090
531.200, 0.088
531.300, 0.099
531.400, 0.095
531.500, 0.092
531.600, 0.094
531.700, 0.102
531.800, 0.097
531.900, 0.082
532.000, 0.102
532.100, 0.100
532.200, 0.090
532.300, 0.094
532.400, 0.088
532.500, 0.086
532.600, 0.100
532.700, 0.092
532.800, 0.098
532.900, 0.089
533.000, 0.092
533.100, 0.088
533.200, 0.098
533.300, 0.102
533.400, 0.093
533.500, 0.095
533.600, 0.090
533.700, 0.091
533.800, 0.087
533.900, 0.093
534.000, 0.098
534.100, 0.094
534.200, 0.091
534.300, 0.084
534.400, 0.098
534.500, 0.084
534.600, 0.093
534.700, 0.087
534.800, 0.084
534.900, 0.082
535.000, 0.081
535.100, 0.093
535.200, 0.083
535.300, 0.083
535.400, 0.080
535.500, 0.091
535.600, 0.089
535.700, 0.090
535.800, 0.098
535.900, 0.093
536.000, 0.096
536.100, 0.101
536.200, 0.102
536.300, 0.096
536.400, 0.109
536.500, 0.100
536.600, 0.095
536.700, 0.100
536.800, 0.091
536.900, 0.092
537.000, 0.105
537.100, 0.099
537.200, 0.103
537.300, 0.105
537.400, 0.100
537.500, 0.096
537.600, 0.100
537.700, 0.098
537.800, 0.099
537.900, 0.090
538.000, 0.099
538.100, 0.099
538.200, 0.104
538.300, 0.102
538.400, 0.098
538.500, 0.095
538.600, 0.094
538.700, 0.092
538.800, 0.090
538.900, 0.091
539.000, 0.082
539.100, 0.091
539.200, 0.094
539.300, 0.100
539.400, 0.098
539.500, 0.102
539.600, 0.100
539.700, 0.098
539.800, 0.092
539.900, 0.102
540.000, 0.100
540.100, 0.100
540.200, 0.107
540.300, 0.096
540.400, 0.092
540.500, 0.109
540.600, 0.100
540.700, 0.094
540.800, 0.097
540.900, 0.100
541.000, 0.099
541.100, 0.101
541.200, 0.105
541.300, 0.099
541.400, 0.092
541.500, 0.099
541.600, 0.101
541.700, 0.087
541.800, 0.094
541.900, 0.093
542.000, 0.096
542.100, 0.099
542.200, 0.086
542.300, 0.092
542.400, 0.081
542.500, 0.085
542.600, 0.096
542.700, 0.084
542.800, 0.093
542.900, 0.095
543.000, 0.088
543.100, 0.091
543.200, 0.095
543.300, 0.095
543.400, 0.086
543.500, 0.092
543.600, 0.099
543.700, 0.096
543.800, 0.103
543.900, 0.099
544.000, 0.094
544.100, 0.088
544.200, 0.094
544.300, 0.086
544.400, 0.103
544.500, 0.092
544.600, 0.101
544.700, 0.094
544.800, 0.095
544.900, 0.092
545.000, 0.103
545.100, 0.091
545.200, 0.093
545.300, 0.088
545.400, 0.095
545.500, 0.104
545.600, 0.091
545.700, 0.099
545.800, 0.094
545.900, 0.093
546.000, 0.100
546.100, 0.093
546.200, 0.091
546.300, 0.089
546.400, 0.094
546.500, 0.089
546.600, 0.092
546.700, 0.091
546.800, 0.095
546.900, 0.087
547.000, 0.088
547.100, 0.092
547.200, 0.094
547.300, 0.086
547.400, 0.091
547.500, 0.097
547.600, 0.098
547.700, 0.092
547.800, 0.093
547.900, 0.090
548.000, 0.093
548.100, 0.090
548.200, 0.098
548.300, 0.092
548.400, 0.097
548.500, 0.096
548.600, 0.099
548.700, 0.094
548.800, 0.099
548.900, 0.096
549.000, 0.090
549.100, 0.092
549.200, 0.101
549.300, 0.095
549.400, 0.092
549.500, 0.100
549.600, 0.102
549.700, 0.103
549.800, 0.089
549.900, 0.095
550.000, 0.097
550.100, 0.092
550.200, 0.089
550.300, 0.091
550.400, 0.099
550.500, 0.095
550.600, 0.091
550.700, 0.092
550.800, 0.096
550.900, 0.096
551.000, 0.092
551.100, 0.094
551.200, 0.095
551.300, 0.099
551.400, 0.104
551.500, 0.094
551.600, 0.090
551.700, 0.102
551.800, 0.088
551.900, 0.086
552.000, 0.093
552.100, 0.092
552.200, 0.089
552.300, 0.089
552.400, 0.091
552.500, 0.086
552.600, 0.091
552.700, 0.089
552.800, 0.094
552.900, 0.088
553.000, 0.084
553.100, 0.091
553.200, 0.103
553.300, 0.097
553.400, 0.091
553.500, 0.088
553.600, 0.096
553.700, 0.095
553.800, 0.086
553.900, 0.090
554.000, 0.107
554.100, 0.108
554.200, 0.101
554.300, 0.090
554.400, 0.083
554.500, 0.091
554.600, 0.091
554.700, 0.089
554.800, 0.098
554.900, 0.087
555.000, 0.093
555.100, 0.090
555.200, 0.097
555.300, 0.084
555.400, 0.085
555.500, 0.095
555.600, 0.093
555.700, 0.088
555.800, 0.100
555.900, 0.089
556.000, 0.077
556.100, 0.084
556.200, 0.085
556.300, 0.093
556.400, 0.089
556.500, 0.106
556.600, 0.101
556.700, 0.096
556.800, 0.091
556.900, 0.098
557.000, 0.081
557.100, 0.087
557.200, 0.098
557.300, 0.100
557.400, 0.106
557.500, 0.100
557.600, 0.093
557.700, 0.108
557.800, 0.096
557.900, 0.096
558.000, 0.099
558.100, 0.088
558.200, 0.101
558.300, 0.084
558.400, 0.085
558.500, 0.094
558.600, 0.103
558.700, 0.089
558.800, 0.099
558.900, 0.101
559.000, 0.098
559.100, 0.102
559.200, 0.101
559.300, 0.093
559.400, 0.084
559.500, 0.091
559.600, 0.095
559.700, 0.089
559.800, 0.085
559.900, 0.093
560.000, 0.086
560.100, 0.085
560.200, 0.086
560.300, 0.102
560.400, 0.099
560.500, 0.096
560.600, 0.093
560.700, 0.093
560.800, 0.095
560.900, 0.094
561.000, 0.110
561.100, 0.099
561.200, 0.095
561.300, 0.099
561.400, 0.100
561.500, 0.098
561.600, 0.090
561.700, 0.109
561.800, 0.088
561.900, 0.091
562.000, 0.089
562.100, 0.092
562.200, 0.093
562.300, 0.091
562.400, 0.091
562.500, 0.087
562.600, 0.092
562.700, 0.086
562.800, 0.090
562.900, 0.092
563.000, 0.088
563.100, 0.094
563.200, 0.088
563.300, 0.090
563.400, 0.090
563.500, 0.094
563.600, 0.095
563.700, 0.088
563.800, 0.092
563.900, 0.088
564.000, 0.088
564.100, 0.084
564.200, 0.088
564.300, 0.083
564.400, 0.089
564.500, 0.092
564.600, 0.085
564.700, 0.091
564.800, 0.108
564.900, 0.097
565.000, 0.091
565.100, 0.097
565.200, 0.104
565.300, 0.095
565.400, 0.091
565.500, 0.100
565.600, 0.098
565.700, 0.087
565.800, 0.087
565.900, 0.096
566.000, 0.095
566.100, 0.101
566.200, 0.100
566.300, 0.100
566.400, 0.099
566.500, 0.101
566.600, 0.094
566.700, 0.097
566.800, 0.099
566.900, 0.103
567.000, 0.098
567.100, 0.099
567.200, 0.108
567.300, 0.109
567.400, 0.108
567.500, 0.114
567.600, 0.106
567.700, 0.105
567.800, 0.103
567.900, 0.100
568.000, 0.098
568.100, 0.097
568.200, 0.095
568.300, 0.097
568.400, 0.096
568.500, 0.089
568.600, 0.094
568.700, 0.090
568.800, 0.090
568.900, 0.095
569.000, 0.097
569.100, 0.093
569.200, 0.098
569.300, 0.093
569.400, 0.091
569.500, 0.087
569.600, 0.089
569.700, 0.080
569.800, 0.089
569.900, 0.099
570.000, 0.094
570.100, 0.085
570.200, 0.085
570.300, 0.090
570.400, 0.091
570.500, 0.082
570.600, 0.097
570.700, 0.088
570.800, 0.089
570.900, 0.091
571.000, 0.083
571.100, 0.095
571.200, 0.093
571.300, 0.095
571.400, 0.090
571.500, 0.099
571.600, 0.094
571.700, 0.084
571.800, 0.093
571.900, 0.089
572.000, 0.091
572.100, 0.082
572.200, 0.083
572.300, 0.088
572.400, 0.092
572.500, 0.079
572.600, 0.084
572.700, 0.086
572.800, 0.084
572.900, 0.098
573.000, 0.087
573.100, 0.087
573.200, 0.095
573.300, 0.086
573.400, 0.093
573.500, 0.097
573.600, 0.101
573.700, 0.095
573.800, 0.093
573.900, 0.085
574.000, 0.084
574.100, 0.090
574.200, 0.078
574.300, 0.095
574.400, 0.097
574.500, 0.092
574.600, 0.086
574.700, 0.088
574.800, 0.088
574.900, 0.098
575.000, 0.097
575.100, 0.091
575.200, 0.094
575.300, 0.093
575.400, 0.090
575.500, 0.087
575.600, 0.087
575.700, 0.083
575.800, 0.095
575.900, 0.092
576.000, 0.093
576.100, 0.091
576.200, 0.091
576.300, 0.090
576.400, 0.093
576.500, 0.099
576.600, 0.097
576.700, 0.098
576.800, 0.096
576.900, 0.088
577.000, 0.095
577.100, 0.098
577.200, 0.087
577.300, 0.091
577.400, 0.104
577.500, 0.096
577.600, 0.096
577.700, 0.093
577.800, 0.090
577.900, 0.090
578.000, 0.093
578.100, 0.086
578.200, 0.093
578.300, 0.094
578.400, 0.088
578.500, 0.086
578.600, 0.091
578.700, 0.083
578.800, 0.088
578.900, 0.083
579.000, 0.083
579.100, 0.089
579.200, 0.086
579.300, 0.096
579.400, 0.087
579.500, 0.081
579.600, 0.082
579.700, 0.078
579.800, 0.083
579.900, 0.087
580.000, 0.093
580.100, 0.087
580.200, 0.075
580.300, 0.078
580.400, 0.090
580.500, 0.088
580.600, 0.099
580.700, 0.088
580.800, 0.091
580.900, 0.087
581.000, 0.085
581.100, 0.084
581.200, 0.084
581.300, 0.085
581.400, 0.092
581.500, 0.087
581.600, 0.094
581.700, 0.086
581.800, 0.097
581.900, 0.088
582.000, 0.087
582.100, 0.088
582.200, 0.087
582.300, 0.088
582.400, 0.091
582.500, 0.094
582.600, 0.089
582.700, 0.095
582.800, 0.091
582.900, 0.083
583.000, 0.086
583.100, 0.095
583.200, 0.099
583.300, 0.087
583.400, 0.083
583.500, 0.079
583.600, 0.084
583.700, 0.084
583.800, 0.077
583.900, 0.088
584.000, 0.085
584.100, 0.098
584.200, 0.091
584.300, 0.091
584.400, 0.093
584.500, 0.085
584.600, 0.085
584.700, 0.086
584.800, 0.093
584.900, 0.094
585.000, 0.091
585.100, 0.094
585.200, 0.090
585.300, 0.093
585.400, 0.100
585.500, 0.094
585.600, 0.098
585.700, 0.093
585.800, 0.090
585.900, 0.091
586.000, 0.085
586.100, 0.094
586.200, 0.086
586.300, 0.092
586.400, 0.090
586.500, 0.091
586.600, 0.090
586.700, 0.092
586.800, 0.097
586.900, 0.093
587.000, 0.087
587.100, 0.092
587.200, 0.092
587.300, 0.092
587.400, 0.094
587.500, 0.095
587.600, 0.104
587.700, 0.089
587.800, 0.091
587.900, 0.087
588.000, 0.095
588.100, 0.092
588.200, 0.100
588.300, 0.087
588.400, 0.083
588.500, 0.088
588.600, 0.094
588.700, 0.091
588.800, 0.092
588.900, 0.089
589.000, 0.102
589.100, 0.089
589.200, 0.087
589.300, 0.099
589.400, 0.102
589.500, 0.100
589.600, 0.097
589.700, 0.096
589.800, 0.098
589.900, 0.093
590.000, 0.089
590.100, 0.086
590.200, 0.097
590.300, 0.093
590.400, 0.096
590.500, 0.094
590.600, 0.097
590.700, 0.097
590.800, 0.096
590.900, 0.091
591.000, 0.096
591.100, 0.091
591.200, 0.093
591.300, 0.096
591.400, 0.091
591.500, 0.093
591.600, 0.097
591.700, 0.090
591.800, 0.087
591.900, 0.098
592.000, 0.098
592.100, 0.091
592.200, 0.086
592.300, 0.092
592.400, 0.080
592.500, 0.083
592.600, 0.092
592.700, 0.085
592.800, 0.095
592.900, 0.094
593.000, 0.094
593.100, 0.093
593.200, 0.104
593.300, 0.093
593.400, 0.087
593.500, 0.090
593.600, 0.086
593.700, 0.094
593.800, 0.091
593.900, 0.090
594.000, 0.096
594.100, 0.088
594.200, 0.092
594.300, 0.088
594.400, 0.092
594.500, 0.091
594.600, 0.091
594.700, 0.093
594.800, 0.100
594.900, 0.094
595.000, 0.096
595.100, 0.094
595.200, 0.098
595.300, 0.086
595.400, 0.090
595.500, 0.084
595.600, 0.090
595.700, 0.083
595.800, 0.083
595.900, 0.088
596.000, 0.094
596.100, 0.088
596.200, 0.083
596.300, 0.080
596.400, 0.086
596.500, 0.086
596.600, 0.094
596.700, 0.087
596.800, 0.090
596.900, 0.088
597.000, 0.092
597.100, 0.086
597.200, 0.091
597.300, 0.094
597.400, 0.093
597.500, 0.101
597.600, 0.085
597.700, 0.095
597.800, 0.090
597.900, 0.090
598.000, 0.089
598.100, 0.083
598.200, 0.089
598.300, 0.107
598.400, 0.093
598.500, 0.089
598.600, 0.096
598.700, 0.091
598.800, 0.089
598.900, 0.088
599.000, 0.088
599.100, 0.089
599.200, 0.088
599.300, 0.085
599.400, 0.083
599.500, 0.084
599.600, 0.091
599.700, 0.086
599.800, 0.080
599.900, 0.088
600.000, 0.085
600.100, 0.095
600.200, 0.095
600.300, 0.088
600.400, 0.089
600.500, 0.083
600.600, 0.083
600.700, 0.083
600.800, 0.086
600.900, 0.093
601.000, 0.093
601.100, 0.101
601.200, 0.100
601.300, 0.092
601.400, 0.101
601.500, 0.118
601.600, 0.100
601.700, 0.096
601.800, 0.099
601.900, 0.103
602.000, 0.107
602.100, 0.111
602.200, 0.111
602.300, 0.108
602.400, 0.096
602.500, 0.095
602.600, 0.104
602.700, 0.105
602.800, 0.105
602.900, 0.096
603.000, 0.091
603.100, 0.090
603.200, 0.092
603.300, 0.100
603.400, 0.093
603.500, 0.081
603.600, 0.086
603.700, 0.093
603.800, 0.096
603.900, 0.084
604.000, 0.097
604.100, 0.101
604.200, 0.103
604.300, 0.095
604.400, 0.093
604.500, 0.097
604.600, 0.097
604.700, 0.096
604.800, 0.105
604.900, 0.089
605.000, 0.088
605.100, 0.088
605.200, 0.088
605.300, 0.100
605.400, 0.108
605.500, 0.104
605.600, 0.101
605.700, 0.089
605.800, 0.102
605.900, 0.097
606.000, 0.102
606.100, 0.101
606.200, 0.092
606.300, 0.097
606.400, 0.103
606.500, 0.104
606.600, 0.099
606.700, 0.094
606.800, 0.080
606.900, 0.095
607.000, 0.089
607.100, 0.089
607.200, 0.086
607.300, 0.082
607.400, 0.094
607.500, 0.088
607.600, 0.092
607.700, 0.093
607.800, 0.092
607.900, 0.101
608.000, 0.100
608.100, 0.100
608.200, 0.095
608.300, 0.106
608.400, 0.094
608.500, 0.092
608.600, 0.095
608.700, 0.093
608.800, 0.090
608.900, 0.094
609.000, 0.090
609.100, 0.092
609.200, 0.084
609.300, 0.092
609.400, 0.099
609.500, 0.098
609.600, 0.093
609.700, 0.083
609.800, 0.095
609.900, 0.098
610.000, 0.095
610.100, 0.094
610.200, 0.098
610.300, 0.097
610.400, 0.090
610.500, 0.091
610.600, 0.096
610.700, 0.092
610.800, 0.095
610.900, 0.103
611.000, 0.094
611.100, 0.095
611.200, 0.087
611.300, 0.091
611.400, 0.092
611.500, 0.095
611.600, 0.094
611.700, 0.089
611.800, 0.088
611.900, 0.089
612.000, 0.093
612.100, 0.088
612.200, 0.092
612.300, 0.089
612.400, 0.092
612.500, 0.089
612.600, 0.094
612.700, 0.094
612.800, 0.088
612.900, 0.091
613.000, 0.097
613.100, 0.094
613.200, 0.092
613.300, 0.085
613.400, 0.090
613.500, 0.087
613.600, 0.089
613.700, 0.090
613.800, 0.087
613.900, 0.099
614.000, 0.090
614.100, 0.093
614.200, 0.085
614.300, 0.093
614.400, 0.090
614.500, 0.101
614.600, 0.090
614.700, 0.092
614.800, 0.091
614.900, 0.097
615.000, 0.095
615.100, 0.092
615.200, 0.094
615.300, 0.093
615.400, 0.097
615.500, 0.087
615.600, 0.090
615.700, 0.098
615.800, 0.094
615.900, 0.090
616.000, 0.094
616.100, 0.090
616.200, 0.094
616.300, 0.095
616.400, 0.091
616.500, 0.091
616.600, 0.108
616.700, 0.103
616.800, 0.085
616.900, 0.092
617.000, 0.086
617.100, 0.088
617.200, 0.081
617.300, 0.085
617.400, 0.092
617.500, 0.089
617.600, 0.099
617.700, 0.093
617.800, 0.095
617.900, 0.089
618.000, 0.094
618.100, 0.090
618.200, 0.089
618.300, 0.088
618.400, 0.083
618.500, 0.087
618.600, 0.092
618.700, 0.087
618.800, 0.087
618.900, 0.086
619.000, 0.088
619.100, 0.094
619.200, 0.091
619.300, 0.095
619.400, 0.091
619.500, 0.091
619.600, 0.093
619.700, 0.088
619.800, 0.095
619.900, 0.083
620.000, 0.085
620.100, 0.086
620.200, 0.098
620.300, 0.092
620.400, 0.097
620.500, 0.095
620.600, 0.097
620.700, 0.089
620.800, 0.093
620.900, 0.085
621.000, 0.091
621.100, 0.093
621.200, 0.086
621.300, 0.092
621.400, 0.084
621.500, 0.094
621.600, 0.092
621.700, 0.089
621.800, 0.098
621.900, 0.094
622.000, 0.098
622.100, 0.094
622.200, 0.096
622.300, 0.101
622.400, 0.100
622.500, 0.100
622.600, 0.092
622.700, 0.096
622.800, 0.102
622.900, 0.105
623.000, 0.093
623.100, 0.095
623.200, 0.093
623.300, 0.095
623.400, 0.095
623.500, 0.088
623.600, 0.093
623.700, 0.098
623.800, 0.093
623.900, 0.092
624.000, 0.089
624.100, 0.096
624.200, 0.099
624.300, 0.092
624.400, 0.084
624.500, 0.092
624.600, 0.088
624.700, 0.093
624.800, 0.091
624.900, 0.089
625.000, 0.094
625.100, 0.100
625.200, 0.097
625.300, 0.097
625.400, 0.094
625.500, 0.097
625.600, 0.098
625.700, 0.089
625.800, 0.092
625.900, 0.090
626.000, 0.094
626.100, 0.086
626.200, 0.086
626.300, 0.095
626.400, 0.091
626.500, 0.092
626.600, 0.088
626.700, 0.091
626.800, 0.093
626.900, 0.101
627.000, 0.098
627.100, 0.086
627.200, 0.102
627.300, 0.094
627.400, 0.098
627.500, 0.093
627.600, 0.085
627.700, 0.093
627.800, 0.103
627.900, 0.096
628.000, 0.101
628.100, 0.087
628.200, 0.099
628.300, 0.110
628.400, 0.106
628.500, 0.113
628.600, 0.104
628.700, 0.099
628.800, 0.101
628.900, 0.099
629.000, 0.099
629.100, 0.100
629.200, 0.101
629.300, 0.099
629.400, 0.100
629.500, 0.101
629.600, 0.107
629.700, 0.099
629.800, 0.092
629.900, 0.095
630.000, 0.106
630.100, 0.096
630.200, 0.106
630.300, 0.115
630.400, 0.111
630.500, 0.111
630.600, 0.104
630.700, 0.095
630.800, 0.099
630.900, 0.106
631.000, 0.104
631.100, 0.103
631.200, 0.099
631.300, 0.102
631.400, 0.091
631.500, 0.094
631.600, 0.103
631.700, 0.095
631.800, 0.096
631.900, 0.096
632.000, 0.098
632.100, 0.100
632.200, 0.102
632.300, 0.095
632.400, 0.101
632.500, 0.105
632.600, 0.094
632.700, 0.099
632.800, 0.091
632.900, 0.093
633.000, 0.090
633.100, 0.090
633.200, 0.107
633.300, 0.108
633.400, 0.097
633.500, 0.098
633.600, 0.103
633.700, 0.101
633.800, 0.095
633.900, 0.093
634.000, 0.086
634.100, 0.090
634.200, 0.099
634.300, 0.090
634.400, 0.083
634.500, 0.095
634.600, 0.098
634.700, 0.091
634.800, 0.095
634.900, 0.093
635.000, 0.108
635.100, 0.101
635.200, 0.104
635.300, 0.094
635.400, 0.102
635.500, 0.099
635.600, 0.103
635.700, 0.097
635.800, 0.102
635.900, 0.099
636.000, 0.099
636.100, 0.103
636.200, 0.112
636.300, 0.101
636.400, 0.096
636.500, 0.092
636.600, 0.103
636.700, 0.097
636.800, 0.098
636.900, 0.100
637.000, 0.095
637.100, 0.096
637.200, 0.099
637.300, 0.093
637.400, 0.096
637.500, 0.095
637.600, 0.095
637.700, 0.094
637.800, 0.086
637.900, 0.091
638.000, 0.090
638.100, 0.105
638.200, 0.096
638.300, 0.093
638.400, 0.090
638.500, 0.097
638.600, 0.089
638.700, 0.084
638.800, 0.102
638.900, 0.103
639.000, 0.096
639.100, 0.095
639.200, 0.093
639.300, 0.085
639.400, 0.092
639.500, 0.093
639.600, 0.091
639.700, 0.091
639.800, 0.099
639.900, 0.094
640.000, 0.090
640.100, 0.091
640.200, 0.094
640.300, 0.094
640.400, 0.091
640.500, 0.089
640.600, 0.095
640.700, 0.097
640.800, 0.093
640.900, 0.090
641.000, 0.095
641.100, 0.088
641.200, 0.093
641.300, 0.096
641.400, 0.102
641.500, 0.092
641.600, 0.105
641.700, 0.088
641.800, 0.095
641.900, 0.091
642.000, 0.080
642.100, 0.087
642.200, 0.090
642.300, 0.087
642.400, 0.097
642.500, 0.089
642.600, 0.091
642.700, 0.098
642.800, 0.096
642.900, 0.098
643.000, 0.084
643.100, 0.081
643.200, 0.092
643.300, 0.100
643.400, 0.086
643.500, 0.094
643.600, 0.101
643.700, 0.091
643.800, 0.098
643.900, 0.096
644.000, 0.092
644.100, 0.083
644.200, 0.086
644.300, 0.082
644.400, 0.083
644.500, 0.088
644.600, 0.081
644.700, 0.082
644.800, 0.091
644.900, 0.081
645.000, 0.083
645.100, 0.084
645.200, 0.079
645.300, 0.085
645.400, 0.082
645.500, 0.083
645.600, 0.086
645.700, 0.088
645.800, 0.085
645.900, 0.082
646.000, 0.080
646.100, 0.083
646.200, 0.089
646.300, 0.090
646.400, 0.089
646.500, 0.096
646.600, 0.099
646.700, 0.115
646.800, 0.111
646.900, 0.121
647.000, 0.112
647.100, 0.097
647.200, 0.097
647.300, 0.087
647.400, 0.104
647.500, 0.091
647.600, 0.086
647.700, 0.091
647.800, 0.093
647.900, 0.096
648.000, 0.097
648.100, 0.100
648.200, 0.100
648.300, 0.097
648.400, 0.095
648.500, 0.102
648.600, 0.106
648.700, 0.103
648.800, 0.108
648.900, 0.110
649.000, 0.106
649.100, 0.099
649.200, 0.097
649.300, 0.100
649.400, 0.089
649.500, 0.087
649.600, 0.104
649.700, 0.094
649.800, 0.086
649.900, 0.088
650.000, 0.096
650.100, 0.096
650.200, 0.095
650.300, 0.098
650.400, 0.101
650.500, 0.092
650.600, 0.088
650.700, 0.087
650.800, 0.097
650.900, 0.097
651.000, 0.093
651.100, 0.090
651.200, 0.090
651.300, 0.096
651.400, 0.093
651.500, 0.093
651.600, 0.090
651.700, 0.088
651.800, 0.080
651.900, 0.084
652.000, 0.084
652.100, 0.086
652.200, 0.091
652.300, 0.089
652.400, 0.076
652.500, 0.086
652.600, 0.077
652.700, 0.078
652.800, 0.082
652.900, 0.089
653.000, 0.090
653.100, 0.088
653.200, 0.098
653.300, 0.098
653.400, 0.094
653.500, 0.089
653.600, 0.094
653.700, 0.091
653.800, 0.087
653.900, 0.091
654.000, 0.093
654.100, 0.092
654.200, 0.091
654.300, 0.101
654.400, 0.085
654.500, 0.096
654.600, 0.085
654.700, 0.092
654.800, 0.087
654.900, 0.088
655.000, 0.087
655.100, 0.092
655.200, 0.089
655.300, 0.103
655.400, 0.090
655.500, 0.086
655.600, 0.088
655.700, 0.091
655.800, 0.084
655.900, 0.092
656.000, 0.086
656.100, 0.093
656.200, 0.088
656.300, 0.092
656.400, 0.090
656.500, 0.108
656.600, 0.107
656.700, 0.109
656.800, 0.097
656.900, 0.089
657.000, 0.093
657.100, 0.095
657.200, 0.088
657.300, 0.092
657.400, 0.094
657.500, 0.101
657.600, 0.094
657.700, 0.092
657.800, 0.097
657.900, 0.093
658.000, 0.091
658.100, 0.089
658.200, 0.087
658.300, 0.092
658.400, 0.089
658.500, 0.092
658.600, 0.085
658.700, 0.087
658.800, 0.088
658.900, 0.086
659.000, 0.085
659.100, 0.083
659.200, 0.083
659.300, 0.093
659.400, 0.090
659.500, 0.088
659.600, 0.097
659.700, 0.084
659.800, 0.087
659.900, 0.097
660.000, 0.092
660.100, 0.096
660.200, 0.096
660.300, 0.091
660.400, 0.087
660.500, 0.102
660.600, 0.094
660.700, 0.096
660.800, 0.100
660.900, 0.095
661.000, 0.096
661.100, 0.104
661.200, 0.090
661.300, 0.096
661.400, 0.092
661.500, 0.085
661.600, 0.084
661.700, 0.087
661.800, 0.092
661.900, 0.103
662.000, 0.101
662.100, 0.080
662.200, 0.088
662.300, 0.095
662.400, 0.088
662.500, 0.087
662.600, 0.080
662.700, 0.091
662.800, 0.092
662.900, 0.094
663.000, 0.094
663.100, 0.098
663.200, 0.087
663.300, 0.094
663.400, 0.090
663.500, 0.093
663.600, 0.087
663.700, 0.091
663.800, 0.086
663.900, 0.092
664.000, 0.086
664.100, 0.083
664.200, 0.092
664.300, 0.088
664.400, 0.091
664.500, 0.089
664.600, 0.092
664.700, 0.093
664.800, 0.084
664.900, 0.082
665.000, 0.085
665.100, 0.090
665.200, 0.086
665.300, 0.083
665.400, 0.080
665.500, 0.084
665.600, 0.094
665.700, 0.092
665.800, 0.085
665.900, 0.089
666.000, 0.085
666.100, 0.086
666.200, 0.090
666.300, 0.091
666.400, 0.087
666.500, 0.083
666.600, 0.088
666.700, 0.083
666.800, 0.094
666.900, 0.085
667.000, 0.087
667.100, 0.085
667.200, 0.081
667.300, 0.082
667.400, 0.090
667.500, 0.093
667.600, 0.085
667.700, 0.089
667.800, 0.099
667.900, 0.085
668.000, 0.084
668.100, 0.085
668.200, 0.086
668.300, 0.083
668.400, 0.085
668.500, 0.083
668.600, 0.083
668.700, 0.084
668.800, 0.088
668.900, 0.088
669.000, 0.080
669.100, 0.095
669.200, 0.088
669.300, 0.094
669.400, 0.096
669.500, 0.086
669.600, 0.106
669.700, 0.094
669.800, 0.091
669.900, 0.094
670.000, 0.101
670.100, 0.091
670.200, 0.088
670.300, 0.080
670.400, 0.092
670.500, 0.086
670.600, 0.090
670.700, 0.086
670.800, 0.081
670.900, 0.081
671.000, 0.081
671.100, 0.079
671.200, 0.077
671.300, 0.091
671.400, 0.084
671.500, 0.084
671.600, 0.084
671.700, 0.084
671.800, 0.076
671.900, 0.081
672.000, 0.084
672.100, 0.085
672.200, 0.083
672.300, 0.085
672.400, 0.085
672.500, 0.090
672.600, 0.088
672.700, 0.086
672.800, 0.089
672.900, 0.090
673.000, 0.086
673.100, 0.093
673.200, 0.091
673.300, 0.091
673.400, 0.091
673.500, 0.090
673.600, 0.090
673.700, 0.090
673.800, 0.089
673.900, 0.096
674.000, 0.088
674.100, 0.084
674.200, 0.092
674.300, 0.084
674.400, 0.091
674.500, 0.092
674.600, 0.090
674.700, 0.086
674.800, 0.091
674.900, 0.087
675.000, 0.088
675.100, 0.089
675.200, 0.084
675.300, 0.084
675.400, 0.089
675.500, 0.090
675.600, 0.084
675.700, 0.089
675.800, 0.091
675.900, 0.098
676.000, 0.090
676.100, 0.095
676.200, 0.094
676.300, 0.084
676.400, 0.092
676.500, 0.099
676.600, 0.094
676.700, 0.090
676.800, 0.087
676.900, 0.087
677.000, 0.092
677.100, 0.091
677.200, 0.089
677.300, 0.089
677.400, 0.091
677.500, 0.101
677.600, 0.098
677.700, 0.095
677.800, 0.087
677.900, 0.087
678.000, 0.089
678.100, 0.087
678.200, 0.085
678.300, 0.097
678.400, 0.089
678.500, 0.082
678.600, 0.086
678.700, 0.089
678.800, 0.087
678.900, 0.095
679.000, 0.096
679.100, 0.086
679.200, 0.082
679.300, 0.091
679.400, 0.091
679.500, 0.093
679.600, 0.088
679.700, 0.085
679.800, 0.087
679.900, 0.090
680.000, 0.092
680.100, 0.095
680.200, 0.086
680.300, 0.087
680.400, 0.092
680.500, 0.086
680.600, 0.077
680.700, 0.089
680.800, 0.083
680.900, 0.089
681.000, 0.080
681.100, 0.083
681.200, 0.091
681.300, 0.084
681.400, 0.093
681.500, 0.080
681.600, 0.078
681.700, 0.083
681.800, 0.078
681.900, 0.083
682.000, 0.086
682.100, 0.084
682.200, 0.084
682.300, 0.086
682.400, 0.086
682.500, 0.077
682.600, 0.076
682.700, 0.089
682.800, 0.090
682.900, 0.084
683.000, 0.085
683.100, 0.092
683.200, 0.085
683.300, 0.097
683.400, 0.098
683.500, 0.090
683.600, 0.091
683.700, 0.091
683.800, 0.092
683.900, 0.095
684.000, 0.095
684.100, 0.088
684.200, 0.099
684.300, 0.103
684.400, 0.104
684.500, 0.093
684.600, 0.096
684.700, 0.098
684.800, 0.090
684.900, 0.097
685.000, 0.092
685.100, 0.090
685.200, 0.085
685.300, 0.101
685.400, 0.105
685.500, 0.100
685.600, 0.096
685.700, 0.089
685.800, 0.085
685.900, 0.088
686.000, 0.098
686.100, 0.097
686.200, 0.085
686.300, 0.088
686.400, 0.099
686.500, 0.096
686.600, 0.087
686.700, 0.087
686.800, 0.089
686.900, 0.090
687.000, 0.095
687.100, 0.087
687.200, 0.093
687.300, 0.095
687.400, 0.092
687.500, 0.083
687.600, 0.088
687.700, 0.108
687.800, 0.104
687.900, 0.102
688.000, 0.096
688.100, 0.104
688.200, 0.097
688.300, 0.101
688.400, 0.095
688.500, 0.099
688.600, 0.100
688.700, 0.096
688.800, 0.098
688.900, 0.092
689.000, 0.092
689.100, 0.098
689.200, 0.088
689.300, 0.098
689.400, 0.088
689.500, 0.090
689.600, 0.085
689.700, 0.086
689.800, 0.091
689.900, 0.093
690.000, 0.095
690.100, 0.091
690.200, 0.086
690.300, 0.087
690.400, 0.090
690.500, 0.088
690.600, 0.089
690.700, 0.079
690.800, 0.090
690.900, 0.086
691.000, 0.081
691.100, 0.088
691.200, 0.084
691.300, 0.089
691.400, 0.089
691.500, 0.097
691.600, 0.085
691.700, 0.089
691.800, 0.087
691.900, 0.085
692.000, 0.092
692.100, 0.089
692.200, 0.089
692.300, 0.093
692.400, 0.090
692.500, 0.098
692.600, 0.087
692.700, 0.095
692.800, 0.098
692.900, 0.092
693.000, 0.079
693.100, 0.085
693.200, 0.088
693.300, 0.077
693.400, 0.084
693.500, 0.093
693.600, 0.085
693.700, 0.089
693.800, 0.087
693.900, 0.083
694.000, 0.091
694.100, 0.088
694.200, 0.079
694.300, 0.097
694.400, 0.078
694.500, 0.085
694.600, 0.089
694.700, 0.077
694.800, 0.080
694.900, 0.080
695.000, 0.091
695.100, 0.084
695.200, 0.082
695.300, 0.082
695.400, 0.089
695.500, 0.081
695.600, 0.090
695.700, 0.078
695.800, 0.087
695.900, 0.089
696.000, 0.086
696.100, 0.089
696.200, 0.089
696.300, 0.094
696.400, 0.091
696.500, 0.087
696.600, 0.081
696.700, 0.089
696.800, 0.084
696.900, 0.088
697.000, 0.090
697.100, 0.086
697.200, 0.092
697.300, 0.086
697.400, 0.083
697.500, 0.088
697.600, 0.097
697.700, 0.085
697.800, 0.091
697.900, 0.094
698.000, 0.095
698.100, 0.089
698.200, 0.084
698.300, 0.090
698.400, 0.089
698.500, 0.085
698.600, 0.098
698.700, 0.092
698.800, 0.086
698.900, 0.086
699.000, 0.084
699.100, 0.100
699.200, 0.095
699.300, 0.085
699.400, 0.090
699.500, 0.097
699.600, 0.089
699.700, 0.085
699.800, 0.093
699.900, 0.088
700.000, 0.087
700.100, 0.101
700.200, 0.098
700.300, 0.091
700.400, 0.088
700.500, 0.087
700.600, 0.080
700.700, 0.087
700.800, 0.082
700.900, 0.088
701.000, 0.085
701.100, 0.083
701.200, 0.087
701.300, 0.090
701.400, 0.090
701.500, 0.097
701.600, 0.096
701.700, 0.087
701.800, 0.085
701.900, 0.090
702.000, 0.099
702.100, 0.094
702.200, 0.090
702.300, 0.089
702.400, 0.083
702.500, 0.091
702.600, 0.101
702.700, 0.095
702.800, 0.097
702.900, 0.090
703.000, 0.093
703.100, 0.100
703.200, 0.091
703.300, 0.091
703.400, 0.089
703.500, 0.087
703.600, 0.086
703.700, 0.084
703.800, 0.092
703.900, 0.087
704.000, 0.086
704.100, 0.091
704.200, 0.081
704.300, 0.090
704.400, 0.091
704.500, 0.090
704.600, 0.085
704.700, 0.090
704.800, 0.085
704.900, 0.089
705.000, 0.086
705.100, 0.091
705.200, 0.087
705.300, 0.076
705.400, 0.081
705.500, 0.087
705.600, 0.089
705.700, 0.079
705.800, 0.092
705.900, 0.088
706.000, 0.090
706.100, 0.082
706.200, 0.087
706.300, 0.082
706.400, 0.078
706.500, 0.080
706.600, 0.082
706.700, 0.081
706.800, 0.073
706.900, 0.087
707.000, 0.091
707.100, 0.091
707.200, 0.091
707.300, 0.081
707.400, 0.085
707.500, 0.082
707.600, 0.084
707.700, 0.088
707.800, 0.091
707.900, 0.093
708.000, 0.091
708.100, 0.091
708.200, 0.080
708.300, 0.089
708.400, 0.088
708.500, 0.084
708.600, 0.093
708.700, 0.091
708.800, 0.087
708.900, 0.090
709.000, 0.093
709.100, 0.094
709.200, 0.088
709.300, 0.092
709.400, 0.087
709.500, 0.088
709.600, 0.090
709.700, 0.086
709.800, 0.083
709.900, 0.081
710.000, 0.085
710.100, 0.091
710.200, 0.081
710.300, 0.085
710.400, 0.093
710.500, 0.090
710.600, 0.089
710.700, 0.085
710.800, 0.084
710.900, 0.087
711.000, 0.083
711.100, 0.079
711.200, 0.082
711.300, 0.088
711.400, 0.085
711.500, 0.077
711.600, 0.078
711.700, 0.081
711.800, 0.080
711.900, 0.088
712.000, 0.095
712.100, 0.088
712.200, 0.081
712.300, 0.093
712.400, 0.083
712.500, 0.092
712.600, 0.092
712.700, 0.092
712.800, 0.081
712.900, 0.085
713.000, 0.092
713.100, 0.086
713.200, 0.088
713.300, 0.083
713.400, 0.087
713.500, 0.086
713.600, 0.088
713.700, 0.085
713.800, 0.090
713.900, 0.083
714.000, 0.073
714.100, 0.074
714.200, 0.082
714.300, 0.091
714.400, 0.084
714.500, 0.079
714.600, 0.079
714.700, 0.086
714.800, 0.084
714.900, 0.088
715.000, 0.078
715.100, 0.086
715.200, 0.084
715.300, 0.085
715.400, 0.091
715.500, 0.085
715.600, 0.087
715.700, 0.081
715.800, 0.086
715.900, 0.085
716.000, 0.083
716.100, 0.083
716.200, 0.092
716.300, 0.091
716.400, 0.087
716.500, 0.082
716.600, 0.084
716.700, 0.083
716.800, 0.088
716.900, 0.081
717.000, 0.083
717.100, 0.088
717.200, 0.077
717.300, 0.091
717.400, 0.086
717.500, 0.090
717.600, 0.087
717.700, 0.090
717.800, 0.097
717.900, 0.082
718.000, 0.090
718.100, 0.083
718.200, 0.085
718.300, 0.083
718.400, 0.086
718.500, 0.084
718.600, 0.087
718.700, 0.091
718.800, 0.093
718.900, 0.091
719.000, 0.091
719.100, 0.084
719.200, 0.091
719.300, 0.081
719.400, 0.088
719.500, 0.090
719.600, 0.085
719.700, 0.090
719.800, 0.093
719.900, 0.080
720.000, 0.081
720.100, 0.084
720.200, 0.088
720.300, 0.083
720.400, 0.090
720.500, 0.089
720.600, 0.082
720.700, 0.095
720.800, 0.095
720.900, 0.088
721.000, 0.083
721.100, 0.078
721.200, 0.080
721.300, 0.088
721.400, 0.091
721.500, 0.095
721.600, 0.085
721.700, 0.086
721.800, 0.079
721.900, 0.092
722.000, 0.087
722.100, 0.093
722.200, 0.092
722.300, 0.085
722.400, 0.083
722.500, 0.090
722.600, 0.086
722.700, 0.084
722.800, 0.089
722.900, 0.096
723.000, 0.081
723.100, 0.079
723.200, 0.088
723.300, 0.087
723.400, 0.076
723.500, 0.082
723.600, 0.082
723.700, 0.084
723.800, 0.095
723.900, 0.084
724.000, 0.086
724.100, 0.085
724.200, 0.089
724.300, 0.083
724.400, 0.086
724.500, 0.083
724.600, 0.089
724.700, 0.077
724.800, 0.089
724.900, 0.089
725.000, 0.086
725.100, 0.083
725.200, 0.086
725.300, 0.085
725.400, 0.081
725.500, 0.086
725.600, 0.082
725.700, 0.082
725.800, 0.090
725.900, 0.093
726.000, 0.091
726.100, 0.087
726.200, 0.081
726.300, 0.076
726.400, 0.091
726.500, 0.093
726.600, 0.093
726.700, 0.087
726.800, 0.083
726.900, 0.093
727.000, 0.087
727.100, 0.085
727.200, 0.091
727.300, 0.092
727.400, 0.093
727.500, 0.090
727.600, 0.090
727.700, 0.086
727.800, 0.088
727.900, 0.086
728.000, 0.085
728.100, 0.091
728.200, 0.089
728.300, 0.082
728.400, 0.094
728.500, 0.092
728.600, 0.099
728.700, 0.098
728.800, 0.089
728.900, 0.092
729.000, 0.087
729.100, 0.094
729.200, 0.083
729.300, 0.089
729.400, 0.086
729.500, 0.089
729.600, 0.095
729.700, 0.082
729.800, 0.094
729.900, 0.090
730.000, 0.087
730.100, 0.082
730.200, 0.086
730.300, 0.099
730.400, 0.084
730.500, 0.089
730.600, 0.084
730.700, 0.095
730.800, 0.094
730.900, 0.097
731.000, 0.084
731.100, 0.093
731.200, 0.080
731.300, 0.090
731.400, 0.084
731.500, 0.086
731.600, 0.088
731.700, 0.093
731.800, 0.091
731.900, 0.084
732.000, 0.094
732.100, 0.097
732.200, 0.096
732.300, 0.088
732.400, 0.101
732.500, 0.084
732.600, 0.087
732.700, 0.099
732.800, 0.102
732.900, 0.098
733.000, 0.100
733.100, 0.088
733.200, 0.076
733.300, 0.083
733.400, 0.082
733.500, 0.085
733.600, 0.084
733.700, 0.088
733.800, 0.090
733.900, 0.086
734.000, 0.090
734.100, 0.085
734.200, 0.082
734.300, 0.085
734.400, 0.088
734.500, 0.085
734.600, 0.086
734.700, 0.092
734.800, 0.092
734.900, 0.092
735.000, 0.082
735.100, 0.078
735.200, 0.088
735.300, 0.095
735.400, 0.079
735.500, 0.083
735.600, 0.088
735.700, 0.083
735.800, 0.088
735.900, 0.088
736.000, 0.088
736.100, 0.085
736.200, 0.084
736.300, 0.080
736.400, 0.085
736.500, 0.079
736.600, 0.085
736.700, 0.087
736.800, 0.095
736.900, 0.090
737.000, 0.089
737.100, 0.085
737.200, 0.082
737.300, 0.082
737.400, 0.090
737.500, 0.093
737.600, 0.075
737.700, 0.089
737.800, 0.084
737.900, 0.088
738.000, 0.077
738.100, 0.086
738.200, 0.090
738.300, 0.087
738.400, 0.092
738.500, 0.085
738.600, 0.091
738.700, 0.091
738.800, 0.081
738.900, 0.102
739.000, 0.085
739.100, 0.086
739.200, 0.088
739.300, 0.091
739.400, 0.083
739.500, 0.090
739.600, 0.091
739.700, 0.082
739.800, 0.084
739.900, 0.089
740.000, 0.090
740.100, 0.092
740.200, 0.078
740.300, 0.088
740.400, 0.087
740.500, 0.088
740.600, 0.085
740.700, 0.091
740.800, 0.080
740.900, 0.085
741.000, 0.084
741.100, 0.089
741.200, 0.088
741.300, 0.091
741.400, 0.086
741.500, 0.090
741.600, 0.089
741.700, 0.077
741.800, 0.084
741.900, 0.094
742.000, 0.082
742.100, 0.086
742.200, 0.084
742.300, 0.089
742.400, 0.101
742.500, 0.093
742.600, 0.084
742.700, 0.082
742.800, 0.092
742.900, 0.084
743.000, 0.087
743.100, 0.081
743.200, 0.087
743.300, 0.078
743.400, 0.084
743.500, 0.088
743.600, 0.093
743.700, 0.090
743.800, 0.085
743.900, 0.093
744.000, 0.091
744.100, 0.092
744.200, 0.093
744.300, 0.093
744.400, 0.092
744.500, 0.091
744.600, 0.088
744.700, 0.091
744.800, 0.086
744.900, 0.084
745.000, 0.102
745.100, 0.095
745.200, 0.097
745.300, 0.082
745.400, 0.095
745.500, 0.096
745.600, 0.091
745.700, 0.086
745.800, 0.090
745.900, 0.099
746.000, 0.093
746.100, 0.085
746.200, 0.092
746.300, 0.097
746.400, 0.100
746.500, 0.087
746.600, 0.088
746.700, 0.086
746.800, 0.092
746.900, 0.087
747.000, 0.085
747.100, 0.080
747.200, 0.088
747.300, 0.089
747.400, 0.082
747.500, 0.090
747.600, 0.088
747.700, 0.082
747.800, 0.088
747.900, 0.081
748.000, 0.088
748.100, 0.087
748.200, 0.085
748.300, 0.090
748.400, 0.081
748.500, 0.085
748.600, 0.082
748.700, 0.081
748.800, 0.089
748.900, 0.073
749.000, 0.082
749.100, 0.086
749.200, 0.099
749.300, 0.083
749.400, 0.099
749.500, 0.094
749.600, 0.076
749.700, 0.083
749.800, 0.085
749.900, 0.102
750.000, 0.090
750.100, 0.092
750.200, 0.094
750.300, 0.091
750.400, 0.098
750.500, 0.101
750.600, 0.086
750.700, 0.101
750.800, 0.085
750.900, 0.080
751.000, 0.082
751.100, 0.091
751.200, 0.093
751.300, 0.091
751.400, 0.082
751.500, 0.089
751.600, 0.080
751.700, 0.096
751.800, 0.088
751.900, 0.084
752.000, 0.086
752.100, 0.093
752.200, 0.083
752.300, 0.077
752.400, 0.081
752.500, 0.082
752.600, 0.089
752.700, 0.087
752.800, 0.088
752.900, 0.087
753.000, 0.082
753.100, 0.079
753.200, 0.084
753.300, 0.084
753.400, 0.088
753.500, 0.079
753.600, 0.079
753.700, 0.084
753.800, 0.076
753.900, 0.085
754.000, 0.078
754.100, 0.083
754.200, 0.092
754.300, 0.088
754.400, 0.091
754.500, 0.088
754.600, 0.083
754.700, 0.086
754.800, 0.089
754.900, 0.095
755.000, 0.088
755.100, 0.087
755.200, 0.083
755.300, 0.095
755.400, 0.108
755.500, 0.088
755.600, 0.091
755.700, 0.087
755.800, 0.087
755.900, 0.087
756.000, 0.088
756.100, 0.093
756.200, 0.091
756.300, 0.082
756.400, 0.093
756.500, 0.093
756.600, 0.091
756.700, 0.090
756.800, 0.085
756.900, 0.090
757.000, 0.083
757.100, 0.079
757.200, 0.085
757.300, 0.089
757.400, 0.079
757.500, 0.087
757.600, 0.089
757.700, 0.086
757.800, 0.091
757.900, 0.088
758.000, 0.089
758.100, 0.095
758.200, 0.086
758.300, 0.091
758.400, 0.083
758.500, 0.090
758.600, 0.096
758.700, 0.080
758.800, 0.102
758.900, 0.094
759.000, 0.088
759.100, 0.090
759.200, 0.087
759.300, 0.094
759.400, 0.082
759.500, 0.079
759.600, 0.092
759.700, 0.089
759.800, 0.083
759.900, 0.090
760.000, 0.082
760.100, 0.082
760.200, 0.079
760.300, 0.077
760.400, 0.077
760.500, 0.082
760.600, 0.080
760.700, 0.077
760.800, 0.088
760.900, 0.086
761.000, 0.086
761.100, 0.089
761.200, 0.083
761.300, 0.080
761.400, 0.082
761.500, 0.083
761.600, 0.087
761.700, 0.083
761.800, 0.093
761.900, 0.088
762.000, 0.078
762.100, 0.078
762.200, 0.075
762.300, 0.086
762.400, 0.081
762.500, 0.083
762.600, 0.082
762.700, 0.082
762.800, 0.080
762.900, 0.076
763.000, 0.075
763.100, 0.082
763.200, 0.074
763.300, 0.074
763.400, 0.085
763.500, 0.092
763.600, 0.087
763.700, 0.078
763.800, 0.073
763.900, 0.081
764.000, 0.088
764.100, 0.079
764.200, 0.084
764.300, 0.081
764.400, 0.081
764.500, 0.089
764.600, 0.084
764.700, 0.082
764.800, 0.086
764.900, 0.076
765.000, 0.084
765.100, 0.078
765.200, 0.087
765.300, 0.082
765.400, 0.089
765.500, 0.091
765.600, 0.083
765.700, 0.089
765.800, 0.082
765.900, 0.088
766.000, 0.084
766.100, 0.090
766.200, 0.084
766.300, 0.093
766.400, 0.088
766.500, 0.097
766.600, 0.083
766.700, 0.084
766.800, 0.089
766.900, 0.085
767.000, 0.089
767.100, 0.092
767.200, 0.093
767.300, 0.088
767.400, 0.088
767.500, 0.087
767.600, 0.087
767.700, 0.081
767.800, 0.079
767.900, 0.087
768.000, 0.088
768.100, 0.086
768.200, 0.082
768.300, 0.085
768.400, 0.094
768.500, 0.100
768.600, 0.094
768.700, 0.097
768.800, 0.092
768.900, 0.089
769.000, 0.089
769.100, 0.089
769.200, 0.090
769.300, 0.097
769.400, 0.095
769.500, 0.085
769.600, 0.092
769.700, 0.089
769.800, 0.101
769.900, 0.092
770.000, 0.090
770.100, 0.090
770.200, 0.096
770.300, 0.091
770.400, 0.084
770.500, 0.099
770.600, 0.087
770.700, 0.080
770.800, 0.090
770.900, 0.082
771.000, 0.085
771.100, 0.096
771.200, 0.089
771.300, 0.087
771.400, 0.091
771.500, 0.090
771.600, 0.100
771.700, 0.089
771.800, 0.089
771.900, 0.086
772.000, 0.083
772.100, 0.085
772.200, 0.092
772.300, 0.085
772.400, 0.094
772.500, 0.097
772.600, 0.085
772.700, 0.082
772.800, 0.083
772.900, 0.086
773.000, 0.086
773.100, 0.092
773.200, 0.092
773.300, 0.086
773.400, 0.083
773.500, 0.083
773.600, 0.076
773.700, 0.075
773.800, 0.078
773.900, 0.085
774.000, 0.081
774.100, 0.084
774.200, 0.079
774.300, 0.077
774.400, 0.086
774.500, 0.079
774.600, 0.080
774.700, 0.079
774.800, 0.078
774.900, 0.095
775.000, 0.093
775.100, 0.080
775.200, 0.089
775.300, 0.076
775.400, 0.090
775.500, 0.078
775.600, 0.084
775.700, 0.092
775.800, 0.084
775.900, 0.089
776.000, 0.088
776.100, 0.093
776.200, 0.087
776.300, 0.092
776.400, 0.087
776.500, 0.088
776.600, 0.086
776.700, 0.086
776.800, 0.103
776.900, 0.090
777.000, 0.099
777.100, 0.090
777.200, 0.092
777.300, 0.097
777.400, 0.099
777.500, 0.099
777.600, 0.106
777.700, 0.097
777.800, 0.091
777.900, 0.099
778.000, 0.102
778.100, 0.095
778.200, 0.099
778.300, 0.098
778.400, 0.098
778.500, 0.084
778.600, 0.109
778.700, 0.089
778.800, 0.089
778.900, 0.092
779.000, 0.101
779.100, 0.094
779.200, 0.097
779.300, 0.095
779.400, 0.101
779.500, 0.093
779.600, 0.106
779.700, 0.101
779.800, 0.097
779.900, 0.101
780.000, 0.101
780.100, 0.099
780.200, 0.092
780.300, 0.097
780.400, 0.096
780.500, 0.096
780.600, 0.092
780.700, 0.095
780.800, 0.091
780.900, 0.090
781.000, 0.096
781.100, 0.093
781.200, 0.079
781.300, 0.093
781.400, 0.095
781.500, 0.088
781.600, 0.105
781.700, 0.085
781.800, 0.088
781.900, 0.093
782.000, 0.101
782.100, 0.100
782.200, 0.096
782.300, 0.095
782.400, 0.105
782.500, 0.101
782.600, 0.098
782.700, 0.094
782.800, 0.096
782.900, 0.100
783.000, 0.086
783.100, 0.091
783.200, 0.100
783.300, 0.089
783.400, 0.091
783.500, 0.091
783.600, 0.098
783.700, 0.102
783.800, 0.101
783.900, 0.095
784.000, 0.089
784.100, 0.091
784.200, 0.095
784.300, 0.085
784.400, 0.090
784.500, 0.088
784.600, 0.086
784.700, 0.097
784.800, 0.091
784.900, 0.090
785.000, 0.086
785.100, 0.089
785.200, 0.085
785.300, 0.094
785.400, 0.106
785.500, 0.092
785.600, 0.100
785.700, 0.094
785.800, 0.086
785.900, 0.089
786.000, 0.081
786.100, 0.087
786.200, 0.090
786.300, 0.079
786.400, 0.081
786.500, 0.093
786.600, 0.087
786.700, 0.087
786.800, 0.089
786.900, 0.090
787.000, 0.096
787.100, 0.088
787.200, 0.086
787.300, 0.097
787.400, 0.093
787.500, 0.096
787.600, 0.106
787.700, 0.100
787.800, 0.109
787.900, 0.098
788.000, 0.101
788.100, 0.104
788.200, 0.098
788.300, 0.103
788.400, 0.099
788.500, 0.099
788.600, 0.100
788.700, 0.090
788.800, 0.099
788.900, 0.094
789.000, 0.091
789.100, 0.093
789.200, 0.094
789.300, 0.090
789.400, 0.088
789.500, 0.079
789.600, 0.091
789.700, 0.090
789.800, 0.092
789.900, 0.088
790.000, 0.091
790.100, 0.091
790.200, 0.098
790.300, 0.096
790.400, 0.087
790.500, 0.084
790.600, 0.087
790.700, 0.091
790.800, 0.096
790.900, 0.091
791.000, 0.093
791.100, 0.084
791.200, 0.090
791.300, 0.086
791.400, 0.090
791.500, 0.081
791.600, 0.088
791.700, 0.072
791.800, 0.086
791.900, 0.086
792.000, 0.082
792.100, 0.085
792.200, 0.087
792.300, 0.092
792.400, 0.085
792.500, 0.092
792.600, 0.092
792.700, 0.095
792.800, 0.086
792.900, 0.095
793.000, 0.080
793.100, 0.094
793.200, 0.093
793.300, 0.094
793.400, 0.088
793.500, 0.086
793.600, 0.091
793.700, 0.086
793.800, 0.083
793.900, 0.090
794.000, 0.090
794.100, 0.081
794.200, 0.083
794.300, 0.087
794.400, 0.093
794.500, 0.092
794.600, 0.092
794.700, 0.088
794.800, 0.093
794.900, 0.094
795.000, 0.101
795.100, 0.092
795.200, 0.097
795.300, 0.090
795.400, 0.100
795.500, 0.102
795.600, 0.090
795.700, 0.103
795.800, 0.098
795.900, 0.088
796.000, 0.092
796.100, 0.107
796.200, 0.101
796.300, 0.097
796.400, 0.107
796.500, 0.095
796.600, 0.090
796.700, 0.108
796.800, 0.098
796.900, 0.097
797.000, 0.096
797.100, 0.099
797.200, 0.091
797.300, 0.092
797.400, 0.095
797.500, 0.093
797.600, 0.091
797.700, 0.097
797.800, 0.085
797.900, 0.097
798.000, 0.090
798.100, 0.090
798.200, 0.092
798.300, 0.093
798.400, 0.095
798.500, 0.102
798.600, 0.104
798.700, 0.088
798.800, 0.097
798.900, 0.094
799.000, 0.097
799.100, 0.092
799.200, 0.087
799.300, 0.092
799.400, 0.087
799.500, 0.091
799.600, 0.088
799.700, 0.081
799.800, 0.100
799.900, 0.098
800.000, 0.093
800.100, 0.097
800.200, 0.090
800.300, 0.085
800.400, 0.088
800.500, 0.081
800.600, 0.087
800.700, 0.092
800.800, 0.093
800.900, 0.095
801.000, 0.092
801.100, 0.093
801.200, 0.092
801.300, 0.100
801.400, 0.086
801.500, 0.099
801.600, 0.090
801.700, 0.096
801.800, 0.085
801.900, 0.097
802.000, 0.090
802.100, 0.085
802.200, 0.087
802.300, 0.080
802.400, 0.080
802.500, 0.084
802.600, 0.086
802.700, 0.084
802.800, 0.091
802.900, 0.090
803.000, 0.086
803.100, 0.088
803.200, 0.091
803.300, 0.083
803.400, 0.082
803.500, 0.084
803.600, 0.085
803.700, 0.098
803.800, 0.094
803.900, 0.092
804.000, 0.091
804.100, 0.091
804.200, 0.093
804.300, 0.094
804.400, 0.086
804.500, 0.098
804.600, 0.085
804.700, 0.083
804.800, 0.085
804.900, 0.093
805.000, 0.087
805.100, 0.089
805.200, 0.084
805.300, 0.090
805.400, 0.094
805.500, 0.089
805.600, 0.082
805.700, 0.091
805.800, 0.087
805.900, 0.084
806.000, 0.087
806.100, 0.096
806.200, 0.094
806.300, 0.096
806.400, 0.097
806.500, 0.096
806.600, 0.088
806.700, 0.092
806.800, 0.096
806.900, 0.095
807.000, 0.094
807.100, 0.093
807.200, 0.088
807.300, 0.096
807.400, 0.087
807.500, 0.090
807.600, 0.095
807.700, 0.096
807.800, 0.085
807.900, 0.093
808.000, 0.085
808.100, 0.096
808.200, 0.094
808.300, 0.101
808.400, 0.097
808.500, 0.093
808.600, 0.089
808.700, 0.088
808.800, 0.092
808.900, 0.093
809.000, 0.083
809.100, 0.094
809.200, 0.092
809.300, 0.095
809.400, 0.091
809.500, 0.093
809.600, 0.087
809.700, 0.091
809.800, 0.093
809.900, 0.094
810.000, 0.093
810.100, 0.099
810.200, 0.085
810.300, 0.092
810.400, 0.090
810.500, 0.089
810.600, 0.089
810.700, 0.084
810.800, 0.088
810.900, 0.077
811.000, 0.071
811.100, 0.071
811.200, 0.070
811.300, 0.082
811.400, 0.085
811.500, 0.068
811.600, 0.077
811.700, 0.070
811.800, 0.070
811.900, 0.071
812.000, 0.073
812.100, 0.077
812.200, 0.073
812.300, 0.075
812.400, 0.082
812.500, 0.080
812.600, 0.080
812.700, 0.080
812.800, 0.078
812.900, 0.085
813.000, 0.073
813.100, 0.088
813.200, 0.087
813.300, 0.076
813.400, 0.085
813.500, 0.080
813.600, 0.086
813.700, 0.084
813.800, 0.076
813.900, 0.086
814.000, 0.075
814.100, 0.092
814.200, 0.087
814.300, 0.087
814.400, 0.086
814.500, 0.082
814.600, 0.089
814.700, 0.091
814.800, 0.077
814.900, 0.092
815.000, 0.088
815.100, 0.084
815.200, 0.081
815.300, 0.082
815.400, 0.085
815.500, 0.091
815.600, 0.084
815.700, 0.086
815.800, 0.084
815.900, 0.075
816.000, 0.082
816.100, 0.082
816.200, 0.078
816.300, 0.075
816.400, 0.081
816.500, 0.080
816.600, 0.085
816.700, 0.086
816.800, 0.085
816.900, 0.085
817.000, 0.089
817.100, 0.085
817.200, 0.095
817.300, 0.094
817.400, 0.094
817.500, 0.094
817.600, 0.087
817.700, 0.090
817.800, 0.086
817.900, 0.090
818.000, 0.078
818.100, 0.077
818.200, 0.072
818.300, 0.080
818.400, 0.087
818.500, 0.085
818.600, 0.083
818.700, 0.081
818.800, 0.083
818.900, 0.081
819.000, 0.078
819.100, 0.078
819.200, 0.084
819.300, 0.088
819.400, 0.086
819.500, 0.082
819.600, 0.086
819.700, 0.087
819.800, 0.085
819.900, 0.089
820.000, 0.092
820.100, 0.101
820.200, 0.097
820.300, 0.087
820.400, 0.086
820.500, 0.085
820.600, 0.088
820.700, 0.094
820.800, 0.089
820.900, 0.092
821.000, 0.096
821.100, 0.098
821.200, 0.093
821.300, 0.094
821.400, 0.095
821.500, 0.102
821.600, 0.097
821.700, 0.098
821.800, 0.099
821.900, 0.097
822.000, 0.101
822.100, 0.108
822.200, 0.100
822.300, 0.100
822.400, 0.099
822.500, 0.102
822.600, 0.104
822.700, 0.103
822.800, 0.107
822.900, 0.112
823.000, 0.104
823.100, 0.101
823.200, 0.100
823.300, 0.104
823.400, 0.086
823.500, 0.093
823.600, 0.086
823.700, 0.090
823.800, 0.090
823.900, 0.084
824.000, 0.090
824.100, 0.101
824.200, 0.085
824.300, 0.096
824.400, 0.098
824.500, 0.100
824.600, 0.089
824.700, 0.103
824.800, 0.105
824.900, 0.092
825.000, 0.097
825.100, 0.092
825.200, 0.108
825.300, 0.096
825.400, 0.101
825.500, 0.103
825.600, 0.099
825.700, 0.100
825.800, 0.092
825.900, 0.104
826.000, 0.104
826.100, 0.100
826.200, 0.104
826.300, 0.101
826.400, 0.101
826.500, 0.095
826.600, 0.099
826.700, 0.098
826.800, 0.088
826.900, 0.087
827.000, 0.094
827.100, 0.088
827.200, 0.096
827.300, 0.088
827.400, 0.097
827.500, 0.099
827.600, 0.099
827.700, 0.101
827.800, 0.104
827.900, 0.114
828.000, 0.102
828.100, 0.097
828.200, 0.100
828.300, 0.098
828.400, 0.094
828.500, 0.103
828.600, 0.101
828.700, 0.099
828.800, 0.121
828.900, 0.105
829.000, 0.103
829.100, 0.091
829.200, 0.098
829.300, 0.098
829.400, 0.086
829.500, 0.084
829.600, 0.095
829.700, 0.096
829.800, 0.095
829.900, 0.094
830.000, 0.089
830.100, 0.091
830.200, 0.099
830.300, 0.093
830.400, 0.095
830.500, 0.099
830.600, 0.095
830.700, 0.107
830.800, 0.103
830.900, 0.102
831.000, 0.097
831.100, 0.093
831.200, 0.115
831.300, 0.106
831.400, 0.094
831.500, 0.088
831.600, 0.097
831.700, 0.103
831.800, 0.102
831.900, 0.088
832.000, 0.091
832.100, 0.091
832.200, 0.088
832.300, 0.089
832.400, 0.097
832.500, 0.096
832.600, 0.088
832.700, 0.083
832.800, 0.108
832.900, 0.092
833.000, 0.093
833.100, 0.093
833.200, 0.092
833.300, 0.095
833.400, 0.104
833.500, 0.100
833.600, 0.102
833.700, 0.097
833.800, 0.089
833.900, 0.093
834.000, 0.093
834.100, 0.090
834.200, 0.083
834.300, 0.091
834.400, 0.091
834.500, 0.090
834.600, 0.096
834.700, 0.099
834.800, 0.114
834.900, 0.098
835.000, 0.091
835.100, 0.105
835.200, 0.101
835.300, 0.089
835.400, 0.091
835.500, 0.096
835.600, 0.095
835.700, 0.094
835.800, 0.100
835.900, 0.100
836.000, 0.095
836.100, 0.095
836.200, 0.090
836.300, 0.090
836.400, 0.092
836.500, 0.091
836.600, 0.102
836.700, 0.107
836.800, 0.099
836.900, 0.101
837.000, 0.102
837.100, 0.100
837.200, 0.109
837.300, 0.111
837.400, 0.102
837.500, 0.102
837.600, 0.105
837.700, 0.099
837.800, 0.097
837.900, 0.101
838.000, 0.100
838.100, 0.085
838.200, 0.079
838.300, 0.095
838.400, 0.092
838.500, 0.092
838.600, 0.095
838.700, 0.100
838.800, 0.104
838.900, 0.097
839.000, 0.098
839.100, 0.106
839.200, 0.095
839.300, 0.099
839.400, 0.083
839.500, 0.093
839.600, 0.103
839.700, 0.099
839.800, 0.097
839.900, 0.077
840.000, 0.102
840.100, 0.100
840.200, 0.097
840.300, 0.100
840.400, 0.083
840.500, 0.087
840.600, 0.090
840.700, 0.093
840.800, 0.096
840.900, 0.082
841.000, 0.088
841.100, 0.086
841.200, 0.078
841.300, 0.088
841.400, 0.087
841.500, 0.085
841.600, 0.097
841.700, 0.100
841.800, 0.098
841.900, 0.103
842.000, 0.094
842.100, 0.101
842.200, 0.101
842.300, 0.108
842.400, 0.113
842.500, 0.105
842.600, 0.095
842.700, 0.103
842.800, 0.102
842.900, 0.106
843.000, 0.104
843.100, 0.095
843.200, 0.095
843.300, 0.105
843.400, 0.102
843.500, 0.104
843.600, 0.111
843.700, 0.086
843.800, 0.091
843.900, 0.084
844.000, 0.084
844.100, 0.091
844.200, 0.083
844.300, 0.089
844.400, 0.092
844.500, 0.082
844.600, 0.087
844.700, 0.077
844.800, 0.077
844.900, 0.089
845.000, 0.080
845.100, 0.078
845.200, 0.080
845.300, 0.084
845.400, 0.092
845.500, 0.093
845.600, 0.083
845.700, 0.073
845.800, 0.084
845.900, 0.088
846.000, 0.090
846.100, 0.076
846.200, 0.091
846.300, 0.091
846.400, 0.087
846.500, 0.096
846.600, 0.080
846.700, 0.091
846.800, 0.091
846.900, 0.084
847.000, 0.090
847.100, 0.092
847.200, 0.081
847.300, 0.099
847.400, 0.088
847.500, 0.084
847.600, 0.082
847.700, 0.086
847.800, 0.084
847.900, 0.089
848.000, 0.091
848.100, 0.076
848.200, 0.082
848.300, 0.082
848.400, 0.084
848.500, 0.078
848.600, 0.076
848.700, 0.089
848.800, 0.076
848.900, 0.088
849.000, 0.084
849.100, 0.080
849.200, 0.085
849.300, 0.081
849.400, 0.079
849.500, 0.073
849.600, 0.085
849.700, 0.096
849.800, 0.088
849.900, 0.086
850.000, 0.097
850.100, 0.074
850.200, 0.089
850.300, 0.087
850.400, 0.093
850.500, 0.080
850.600, 0.083
850.700, 0.081
850.800, 0.071
850.900, 0.083
851.000, 0.076
851.100, 0.083
851.200, 0.085
851.300, 0.077
851.400, 0.093
851.500, 0.080
851.600, 0.083
851.700, 0.077
851.800, 0.085
851.900, 0.085
852.000, 0.086
852.100, 0.081
852.200, 0.078
852.300, 0.075
852.400, 0.083
852.500, 0.082
852.600, 0.081
852.700, 0.079
852.800, 0.074
852.900, 0.077
853.000, 0.081
853.100, 0.089
853.200, 0.085
853.300, 0.091
853.400, 0.092
853.500, 0.089
853.600, 0.089
853.700, 0.100
853.800, 0.088
853.900, 0.099
854.000, 0.086
854.100, 0.092
854.200, 0.097
854.300, 0.091
854.400, 0.087
854.500, 0.089
854.600, 0.085
854.700, 0.089
854.800, 0.088
854.900, 0.084
855.000, 0.085
855.100, 0.090
855.200, 0.094
855.300, 0.098
855.400, 0.095
855.500, 0.092
855.600, 0.091
855.700, 0.089
855.800, 0.085
855.900, 0.082
856.000, 0.085
856.100, 0.076
856.200, 0.079
856.300, 0.084
856.400, 0.077
856.500, 0.090
856.600, 0.084
856.700, 0.088
856.800, 0.086
856.900, 0.082
857.000, 0.081
857.100, 0.076
857.200, 0.072
857.300, 0.076
857.400, 0.080
857.500, 0.073
857.600, 0.080
857.700, 0.086
857.800, 0.080
857.900, 0.086
858.000, 0.084
858.100, 0.104
858.200, 0.085
858.300, 0.089
858.400, 0.084
858.500, 0.081
858.600, 0.090
858.700, 0.096
858.800, 0.094
858.900, 0.084
859.000, 0.086
859.100, 0.082
859.200, 0.093
859.300, 0.084
859.400, 0.085
859.500, 0.081
859.600, 0.082
859.700, 0.079
859.800, 0.087
859.900, 0.082
860.000, 0.087
860.100, 0.080
860.200, 0.088
860.300, 0.075
860.400, 0.079
860.500, 0.082
860.600, 0.090
860.700, 0.085
860.800, 0.090
860.900, 0.084
861.000, 0.087
861.100, 0.091
861.200, 0.086
861.300, 0.086
861.400, 0.091
861.500, 0.085
861.600, 0.103
861.700, 0.102
861.800, 0.099
861.900, 0.094
862.000, 0.090
862.100, 0.086
862.200, 0.090
862.300, 0.096
862.400, 0.085
862.500, 0.090
862.600, 0.096
862.700, 0.095
862.800, 0.090
862.900, 0.085
863.000, 0.084
863.100, 0.087
863.200, 0.087
863.300, 0.085
863.400, 0.082
863.500, 0.086
863.600, 0.093
863.700, 0.095
863.800, 0.090
863.900, 0.083
864.000, 0.073
864.100, 0.088
864.200, 0.087
864.300, 0.087
864.400, 0.080
864.500, 0.090
864.600, 0.089
864.700, 0.093
864.800, 0.091
864.900, 0.083
865.000, 0.076
865.100, 0.087
865.200, 0.087
865.300, 0.081
865.400, 0.082
865.500, 0.084
865.600, 0.084
865.700, 0.092
865.800, 0.091
865.900, 0.096
866.000, 0.086
866.100, 0.092
866.200, 0.082
866.300, 0.086
866.400, 0.080
866.500, 0.091
866.600, 0.087
866.700, 0.102
866.800, 0.116
866.900, 0.104
867.000, 0.101
867.100, 0.113
867.200, 0.107
867.300, 0.108
867.400, 0.111
867.500, 0.107
867.600, 0.106
867.700, 0.102
867.800, 0.109
867.900, 0.115
868.000, 0.108
868.100, 0.110
868.200, 0.120
868.300, 0.112
868.400, 0.114
868.500, 0.110
868.600, 0.098
868.700, 0.096
868.800, 0.113
868.900, 0.105
869.000, 0.095
869.100, 0.092
869.200, 0.093
869.300, 0.093
869.400, 0.108
869.500, 0.093
869.600, 0.097
869.700, 0.093
869.800, 0.087
869.900, 0.100
870.000, 0.097
870.100, 0.102
870.200, 0.094
870.300, 0.097
870.400, 0.098
870.500, 0.095
870.600, 0.103
870.700, 0.106
870.800, 0.102
870.900, 0.116
871.000, 0.098
871.100, 0.094
871.200, 0.098
871.300, 0.104
871.400, 0.099
871.500, 0.106
871.600, 0.101
871.700, 0.107
871.800, 0.095
871.900, 0.101
872.000, 0.106
872.100, 0.094
872.200, 0.104
872.300, 0.108
872.400, 0.111
872.500, 0.097
872.600, 0.112
872.700, 0.104
872.800, 0.111
872.900, 0.106
873.000, 0.117
873.100, 0.112
873.200, 0.108
873.300, 0.104
873.400, 0.119
873.500, 0.106
873.600, 0.119
873.700, 0.111
873.800, 0.110
873.900, 0.106
874.000, 0.100
874.100, 0.101
874.200, 0.093
874.300, 0.098
874.400, 0.107
874.500, 0.101
874.600, 0.100
874.700, 0.097
874.800, 0.098
874.900, 0.108
875.000, 0.110
875.100, 0.100
875.200, 0.102
875.300, 0.109
875.400, 0.105
875.500, 0.109
875.600, 0.112
875.700, 0.107
875.800, 0.098
875.900, 0.110
876.000, 0.108
876.100, 0.106
876.200, 0.107
876.300, 0.104
876.400, 0.108
876.500, 0.106
876.600, 0.111
876.700, 0.109
876.800, 0.109
876.900, 0.100
877.000, 0.110
877.100, 0.102
877.200, 0.108
877.300, 0.098
877.400, 0.101
877.500, 0.103
877.600, 0.103
877.700, 0.106
877.800, 0.099
877.900, 0.103
878.000, 0.100
878.100, 0.105
878.200, 0.096
878.300, 0.098
878.400, 0.106
878.500, 0.101
878.600, 0.099
878.700, 0.108
878.800, 0.097
878.900, 0.096
879.000, 0.101
879.100, 0.093
879.200, 0.092
879.300, 0.092
879.400, 0.098
879.500, 0.093
879.600, 0.104
879.700, 0.098
879.800, 0.093
879.900, 0.093
880.000, 0.093
880.100, 0.104
880.200, 0.094
880.300, 0.108
880.400, 0.104
880.500, 0.102
880.600, 0.100
880.700, 0.099
880.800, 0.095
880.900, 0.104
881.000, 0.104
881.100, 0.112
881.200, 0.109
881.300, 0.110
881.400, 0.119
881.500, 0.113
881.600, 0.107
881.700, 0.118
881.800, 0.115
881.900, 0.097
882.000, 0.099
882.100, 0.106
882.200, 0.114
882.300, 0.108
882.400, 0.097
882.500, 0.097
882.600, 0.101
882.700, 0.112
882.800, 0.112
882.900, 0.113
883.000, 0.115
883.100, 0.111
883.200, 0.104
883.300, 0.108
883.400, 0.104
883.500, 0.101
883.600, 0.104
883.700, 0.109
883.800, 0.106
883.900, 0.107
884.000, 0.105
884.100, 0.101
884.200, 0.108
884.300, 0.114
884.400, 0.104
884.500, 0.113
884.600, 0.104
884.700, 0.106
884.800, 0.106
884.900, 0.115
885.000, 0.113
885.100, 0.109
885.200, 0.109
885.300, 0.105
885.400, 0.120
885.500, 0.105
885.600, 0.112
885.700, 0.106
885.800, 0.105
885.900, 0.098
886.000, 0.101
886.100, 0.105
886.200, 0.105
886.300, 0.090
886.400, 0.108
886.500, 0.109
886.600, 0.097
886.700, 0.106
886.800, 0.111
886.900, 0.103
887.000, 0.105
887.100, 0.089
887.200, 0.106
887.300, 0.106
887.400, 0.104
887.500, 0.109
887.600, 0.093
887.700, 0.105
887.800, 0.090
887.900, 0.107
888.000, 0.105
888.100, 0.106
888.200, 0.097
888.300, 0.095
888.400, 0.093
888.500, 0.093
888.600, 0.095
888.700, 0.089
888.800, 0.089
888.900, 0.085
889.000, 0.100
889.100, 0.093
889.200, 0.103
889.300, 0.095
889.400, 0.095
889.500, 0.100
889.600, 0.097
889.700, 0.090
889.800, 0.092
889.900, 0.100
890.000, 0.093
890.100, 0.093
890.200, 0.091
890.300, 0.089
890.400, 0.084
890.500, 0.090
890.600, 0.090
890.700, 0.089
890.800, 0.096
890.900, 0.101
891.000, 0.096
891.100, 0.097
891.200, 0.093
891.300, 0.088
891.400, 0.098
891.500, 0.096
891.600, 0.095
891.700, 0.086
891.800, 0.087
891.900, 0.088
892.000, 0.087
892.100, 0.083
892.200, 0.079
892.300, 0.087
892.400, 0.084
892.500, 0.082
892.600, 0.082
892.700, 0.086
892.800, 0.086
892.900, 0.079
893.000, 0.084
893.100, 0.082
893.200, 0.090
893.300, 0.086
893.400, 0.097
893.500, 0.086
893.600, 0.097
893.700, 0.090
893.800, 0.090
893.900, 0.097
894.000, 0.091
894.100, 0.089
894.200, 0.080
894.300, 0.083
894.400, 0.076
894.500, 0.079
894.600, 0.082
894.700, 0.085
894.800, 0.085
894.900, 0.092
895.000, 0.086
895.100, 0.090
895.200, 0.091
895.300, 0.094
895.400, 0.082
895.500, 0.087
895.600, 0.094
895.700, 0.087
895.800, 0.088
895.900, 0.091
896.000, 0.096
896.100, 0.101
896.200, 0.100
896.300, 0.100
896.400, 0.102
896.500, 0.099
896.600, 0.093
896.700, 0.091
896.800, 0.089
896.900, 0.097
897.000, 0.087
897.100, 0.082
897.200, 0.091
897.300, 0.090
897.400, 0.103
897.500, 0.100
897.600, 0.114
897.700, 0.108
897.800, 0.102
897.900, 0.096
898.000, 0.101
898.100, 0.098
898.200, 0.091
898.300, 0.097
898.400, 0.095
898.500, 0.103
898.600, 0.100
898.700, 0.087
898.800, 0.097
898.900, 0.097
899.000, 0.090
899.100, 0.096
899.200, 0.087
899.300, 0.092
899.400, 0.089
899.500, 0.094
899.600, 0.104
899.700, 0.098
899.800, 0.097
899.900, 0.096
900.000, 0.095
900.100, 0.105
900.200, 0.094
900.300, 0.091
900.400, 0.106
900.500, 0.099
900.600, 0.099
900.700, 0.094
900.800, 0.098
900.900, 0.098
901.000, 0.099
901.100, 0.098
901.200, 0.098
901.300, 0.096
901.400, 0.091
901.500, 0.100
901.600, 0.089
901.700, 0.099
901.800, 0.095
901.900, 0.090
902.000, 0.101
902.100, 0.101
902.200, 0.092
902.300, 0.099
902.400, 0.102
902.500, 0.099
902.600, 0.095
902.700, 0.107
902.800, 0.102
902.900, 0.086
903.000, 0.087
903.100, 0.093
903.200, 0.086
903.300, 0.092
903.400, 0.098
903.500, 0.099
903.600, 0.108
903.700, 0.106
903.800, 0.101
903.900, 0.100
904.000, 0.098
904.100, 0.092
904.200, 0.100
904.300, 0.095
904.400, 0.098
904.500, 0.094
904.600, 0.087
904.700, 0.095
904.800, 0.089
904.900, 0.093
905.000, 0.089
905.100, 0.106
905.200, 0.096
905.300, 0.098
905.400, 0.091
905.500, 0.089
905.600, 0.081
905.700, 0.083
905.800, 0.086
905.900, 0.099
906.000, 0.091
906.100, 0.091
906.200, 0.089
906.300, 0.092
906.400, 0.092
906.500, 0.100
906.600, 0.100
906.700, 0.091
906.800, 0.087
906.900, 0.095
907.000, 0.091
907.100, 0.089
907.200, 0.093
907.300, 0.094
907.400, 0.098
907.500, 0.094
907.600, 0.105
907.700, 0.094
907.800, 0.089
907.900, 0.095
908.000, 0.087
908.100, 0.090
908.200, 0.095
908.300, 0.097
908.400, 0.100
908.500, 0.092
908.600, 0.100
908.700, 0.094
908.800, 0.094
908.900, 0.089
909.000, 0.089
909.100, 0.094
909.200, 0.093
909.300, 0.096
909.400, 0.094
909.500, 0.093
909.600, 0.092
909.700, 0.098
909.800, 0.086
909.900, 0.093
910.000, 0.093
910.100, 0.087
910.200, 0.085
910.300, 0.088
910.400, 0.097
910.500, 0.102
910.600, 0.093
910.700, 0.082
910.800, 0.085
910.900, 0.093
911.000, 0.086
911.100, 0.096
911.200, 0.090
911.300, 0.095
911.400, 0.098
911.500, 0.109
911.600, 0.083
911.700, 0.084
911.800, 0.088
911.900, 0.083
912.000, 0.090
912.100, 0.099
912.200, 0.084
912.300, 0.086
912.400, 0.093
912.500, 0.086
912.600, 0.077
912.700, 0.091
912.800, 0.087
912.900, 0.088
913.000, 0.090
913.100, 0.081
913.200, 0.086
913.300, 0.093
913.400, 0.093
913.500, 0.092
913.600, 0.096
913.700, 0.089
913.800, 0.090
913.900, 0.089
914.000, 0.102
914.100, 0.094
914.200, 0.092
914.300, 0.093
914.400, 0.088
914.500, 0.091
914.600, 0.093
914.700, 0.089
914.800, 0.097
914.900, 0.094
915.000, 0.090
915.100, 0.093
915.200, 0.096
915.300, 0.088
915.400, 0.093
915.500, 0.096
915.600, 0.090
915.700, 0.099
915.800, 0.094
915.900, 0.109
916.000, 0.106
916.100, 0.103
916.200, 0.100
916.300, 0.097
916.400, 0.092
916.500, 0.097
916.600, 0.093
916.700, 0.097
916.800, 0.090
916.900, 0.091
917.000, 0.092
917.100, 0.089
917.200, 0.088
917.300, 0.082
917.400, 0.083
917.500, 0.089
917.600, 0.085
917.700, 0.081
917.800, 0.094
917.900, 0.092
918.000, 0.085
918.100, 0.079
918.200, 0.077
918.300, 0.085
918.400, 0.080
918.500, 0.075
918.600, 0.084
918.700, 0.080
918.800, 0.087
918.900, 0.080
919.000, 0.085
919.100, 0.087
919.200, 0.077
919.300, 0.086
919.400, 0.081
919.500, 0.079
919.600, 0.077
919.700, 0.079
919.800, 0.074
919.900, 0.077
920.000, 0.075
920.100, 0.074
920.200, 0.074
920.300, 0.071
920.400, 0.077
920.500, 0.073
920.600, 0.079
920.700, 0.071
920.800, 0.075
920.900, 0.074
921.000, 0.085
921.100, 0.075
921.200, 0.074
921.300, 0.072
921.400, 0.075
921.500, 0.082
921.600, 0.082
921.700, 0.084
921.800, 0.073
921.900, 0.077
922.000, 0.079
922.100, 0.071
922.200, 0.077
922.300, 0.078
922.400, 0.087
922.500, 0.084
922.600, 0.074
922.700, 0.074
922.800, 0.075
922.900, 0.073
923.000, 0.073
923.100, 0.069
923.200, 0.081
923.300, 0.070
923.400, 0.075
923.500, 0.080
923.600, 0.076
923.700, 0.075
923.800, 0.075
923.900, 0.086
924.000, 0.076
924.100, 0.072
924.200, 0.082
924.300, 0.081
924.400, 0.084
924.500, 0.091
924.600, 0.080
924.700, 0.076
924.800, 0.079
924.900, 0.083
925.000, 0.088
925.100, 0.085
925.200, 0.091
925.300, 0.082
925.400, 0.081
925.500, 0.085
925.600, 0.082
925.700, 0.084
925.800, 0.083
925.900, 0.078
926.000, 0.083
926.100, 0.084
926.200, 0.077
926.300, 0.089
926.400, 0.087
926.500, 0.098
926.600, 0.091
926.700, 0.089
926.800, 0.094
926.900, 0.093
927.000, 0.086
927.100, 0.082
927.200, 0.080
927.300, 0.071
927.400, 0.083
927.500, 0.076
927.600, 0.072
927.700, 0.071
927.800, 0.072
927.900, 0.071
928.000, 0.075
928.100, 0.080
928.200, 0.080
928.300, 0.082
928.400, 0.076
928.500, 0.075
928.600, 0.082
928.700, 0.072
928.800, 0.085
928.900, 0.088
929.000, 0.084
929.100, 0.075
929.200, 0.076
929.300, 0.074
929.400, 0.073
929.500, 0.072
929.600, 0.076
929.700, 0.080
929.800, 0.076
929.900, 0.074
930.000, 0.078
930.100, 0.078
930.200, 0.086
930.300, 0.085
930.400, 0.073
930.500, 0.080
930.600, 0.066
930.700, 0.077
930.800, 0.076
930.900, 0.084
931.000, 0.079
931.100, 0.087
931.200, 0.076
931.300, 0.086
931.400, 0.086
931.500, 0.076
931.600, 0.090
931.700, 0.090
931.800, 0.087
931.900, 0.099
932.000, 0.088
932.100, 0.087
932.200, 0.086
932.300, 0.097
932.400, 0.110
932.500, 0.099
932.600, 0.084
932.700, 0.086
932.800, 0.096
932.900, 0.088
933.000, 0.085
933.100, 0.095
933.200, 0.101
933.300, 0.092
933.400, 0.096
933.500, 0.082
933.600, 0.096
933.700, 0.091
933.800, 0.085
933.900, 0.089
934.000, 0.086
934.100, 0.086
934.200, 0.091
934.300, 0.076
934.400, 0.084
934.500, 0.088
934.600, 0.084
934.700, 0.083
934.800, 0.080
934.900, 0.072
935.000, 0.070
935.100, 0.086
935.200, 0.083
935.300, 0.076
935.400, 0.074
935.500, 0.087
935.600, 0.087
935.700, 0.094
935.800, 0.083
935.900, 0.085
936.000, 0.096
936.100, 0.094
936.200, 0.093
936.300, 0.103
936.400, 0.098
936.500, 0.102
936.600, 0.100
936.700, 0.093
936.800, 0.099
936.900, 0.095
937.000, 0.096
937.100, 0.080
937.200, 0.088
937.300, 0.087
937.400, 0.091
937.500, 0.089
937.600, 0.087
937.700, 0.083
937.800, 0.083
937.900, 0.075
938.000, 0.072
938.100, 0.078
938.200, 0.077
938.300, 0.084
938.400, 0.082
938.500, 0.080
938.600, 0.081
938.700, 0.074
938.800, 0.078
938.900, 0.085
939.000, 0.082
939.100, 0.087
939.200, 0.084
939.300, 0.070
939.400, 0.082
939.500, 0.078
939.600, 0.078
939.700, 0.062
939.800, 0.063
939.900, 0.074
940.000, 0.077
940.100, 0.083
940.200, 0.079
940.300, 0.085
940.400, 0.079
940.500, 0.073
940.600, 0.073
940.700, 0.073
940.800, 0.070
940.900, 0.065
941.000, 0.072
941.100, 0.073
941.200, 0.066
941.300, 0.070
941.400, 0.066
941.500, 0.072
941.600, 0.063
941.700, 0.079
941.800, 0.076
941.900, 0.074
942.000, 0.082
942.100, 0.069
942.200, 0.073
942.300, 0.077
942.400, 0.068
942.500, 0.064
942.600, 0.071
942.700, 0.075
942.800, 0.078
942.900, 0.081
943.000, 0.077
943.100, 0.079
943.200, 0.070
943.300, 0.074
943.400, 0.063
943.500, 0.065
943.600, 0.067
943.700, 0.068
943.800, 0.075
943.900, 0.065
944.000, 0.062
944.100, 0.063
944.200, 0.071
944.300, 0.076
944.400, 0.064
944.500, 0.067
944.600, 0.064
944.700, 0.068
944.800, 0.072
944.900, 0.069
945.000, 0.069
945.100, 0.069
945.200, 0.077
945.300, 0.060
945.400, 0.067
945.500, 0.068
945.600, 0.085
945.700, 0.068
945.800, 0.077
945.900, 0.075
946.000, 0.070
946.100, 0.085
946.200, 0.077
946.300, 0.070
946.400, 0.081
946.500, 0.075
946.600, 0.068
946.700, 0.073
946.800, 0.069
946.900, 0.082
947.000, 0.082
947.100, 0.080
947.200, 0.082
947.300, 0.087
947.400, 0.086
947.500, 0.086
947.600, 0.082
947.700, 0.077
947.800, 0.078
947.900, 0.080
948.000, 0.088
948.100, 0.083
948.200, 0.080
948.300, 0.075
948.400, 0.078
948.500, 0.077
948.600, 0.076
948.700, 0.077
948.800, 0.071
948.900, 0.074
949.000, 0.082
949.100, 0.091
949.200, 0.085
949.300, 0.094
949.400, 0.079
949.500, 0.084
949.600, 0.081
949.700, 0.078
949.800, 0.084
949.900, 0.089
950.000, 0.085
950.100, 0.075
950.200, 0.086
950.300, 0.077
950.400, 0.071
950.500, 0.070
950.600, 0.072
950.700, 0.083
950.800, 0.076
950.900, 0.077
951.000, 0.078
951.100, 0.092
951.200, 0.086
951.300, 0.080
951.400, 0.080
951.500, 0.079
951.600, 0.082
951.700, 0.074
951.800, 0.074
951.900, 0.075
952.000, 0.074
952.100, 0.078
952.200, 0.089
952.300, 0.076
952.400, 0.076
952.500, 0.082
952.600, 0.076
952.700, 0.073
952.800, 0.068
952.900, 0.069
953.000, 0.071
953.100, 0.073
953.200, 0.078
953.300, 0.070
953.400, 0.071
953.500, 0.079
953.600, 0.069
953.700, 0.072
953.800, 0.077
953.900, 0.076
954.000, 0.071
954.100, 0.078
954.200, 0.085
954.300, 0.071
954.400, 0.074
954.500, 0.084
954.600, 0.081
954.700, 0.074
954.800, 0.071
954.900, 0.074
955.000, 0.075
955.100, 0.069
955.200, 0.069
955.300, 0.076
955.400, 0.075
955.500, 0.079
955.600, 0.075
955.700, 0.076
955.800, 0.074
955.900, 0.066
956.000, 0.070
956.100, 0.082
956.200, 0.076
956.300, 0.068
956.400, 0.070
956.500, 0.069
956.600, 0.071
956.700, 0.070
956.800, 0.069
956.900, 0.076
957.000, 0.077
957.100, 0.082
957.200, 0.076
957.300, 0.080
957.400, 0.078
957.500, 0.079
957.600, 0.069
957.700, 0.075
957.800, 0.077
957.900, 0.078
958.000, 0.072
958.100, 0.078
958.200, 0.075
958.300, 0.071
958.400, 0.073
958.500, 0.088
958.600, 0.078
958.700, 0.084
958.800, 0.077
958.900, 0.076
959.000, 0.079
959.100, 0.079
959.200, 0.078
959.300, 0.079
959.400, 0.080
959.500, 0.078
959.600, 0.080
959.700, 0.076
959.800, 0.075
959.900, 0.073
960.000, 0.070
960.100, 0.072
960.200, 0.077
960.300, 0.071
960.400, 0.075
960.500, 0.070
960.600, 0.070
960.700, 0.070
960.800, 0.073
960.900, 0.072
961.000, 0.082
961.100, 0.075
961.200, 0.080
961.300, 0.076
961.400, 0.079
961.500, 0.076
961.600, 0.073
961.700, 0.071
961.800, 0.072
961.900, 0.079
962.000, 0.073
962.100, 0.076
962.200, 0.066
962.300, 0.073
962.400, 0.071
962.500, 0.073
962.600, 0.077
962.700, 0.071
962.800, 0.074
962.900, 0.068
963.000, 0.071
963.100, 0.068
963.200, 0.073
963.300, 0.076
963.400, 0.079
963.500, 0.072
963.600, 0.069
963.700, 0.074
963.800, 0.068
963.900, 0.076
964.000, 0.075
964.100, 0.075
964.200, 0.074
964.300, 0.068
964.400, 0.071
964.500, 0.072
964.600, 0.070
964.700, 0.087
964.800, 0.080
964.900, 0.087
965.000, 0.075
965.100, 0.073
965.200, 0.074
965.300, 0.072
965.400, 0.068
965.500, 0.071
965.600, 0.067
965.700, 0.068
965.800, 0.074
965.900, 0.068
966.000, 0.080
966.100, 0.076
966.200, 0.070
966.300, 0.079
966.400, 0.078
966.500, 0.069
966.600, 0.077
966.700, 0.075
966.800, 0.067
966.900, 0.069
967.000, 0.070
967.100, 0.071
967.200, 0.070
967.300, 0.074
967.400, 0.069
967.500, 0.071
967.600, 0.069
967.700, 0.076
967.800, 0.074
967.900, 0.073
968.000, 0.065
968.100, 0.070
968.200, 0.070
968.300, 0.080
968.400, 0.074
968.500, 0.077
968.600, 0.077
968.700, 0.086
968.800, 0.078
968.900, 0.077
969.000, 0.071
969.100, 0.076
969.200, 0.072
969.300, 0.070
969.400, 0.078
969.500, 0.077
969.600, 0.076
969.700, 0.082
969.800, 0.084
969.900, 0.086
970.000, 0.070
970.100, 0.073
970.200, 0.082
970.300, 0.071
970.400, 0.080
970.500, 0.091
970.600, 0.079
970.700, 0.082
970.800, 0.079
970.900, 0.076
971.000, 0.081
971.100, 0.081
971.200, 0.081
971.300, 0.078
971.400, 0.082
971.500, 0.083
971.600, 0.081
971.700, 0.079
971.800, 0.084
971.900, 0.084
972.000, 0.077
972.100, 0.075
972.200, 0.081
972.300, 0.074
972.400, 0.074
972.500, 0.076
972.600, 0.078
972.700, 0.077
972.800, 0.080
972.900, 0.089
973.000, 0.097
973.100, 0.077
973.200, 0.084
973.300, 0.083
973.400, 0.081
973.500, 0.087
973.600, 0.088
973.700, 0.088
973.800, 0.076
973.900, 0.071
974.000, 0.077
974.100, 0.078
974.200, 0.072
974.300, 0.069
974.400, 0.075
974.500, 0.074
974.600, 0.067
974.700, 0.077
974.800, 0.071
974.900, 0.070
975.000, 0.067
975.100, 0.074
975.200, 0.068
975.300, 0.065
975.400, 0.074
975.500, 0.070
975.600, 0.070
975.700, 0.072
975.800, 0.079
975.900, 0.080
976.000, 0.075
976.100, 0.080
976.200, 0.078
976.300, 0.077
976.400, 0.080
976.500, 0.076
976.600, 0.069
976.700, 0.061
976.800, 0.063
976.900, 0.068
977.000, 0.074
977.100, 0.074
977.200, 0.082
977.300, 0.079
977.400, 0.073
977.500, 0.092
977.600, 0.079
977.700, 0.080
977.800, 0.087
977.900, 0.086
978.000, 0.078
978.100, 0.084
978.200, 0.091
978.300, 0.087
978.400, 0.075
978.500, 0.092
978.600, 0.086
978.700, 0.084
978.800, 0.088
978.900, 0.098
979.000, 0.088
979.100, 0.089
979.200, 0.077
979.300, 0.076
979.400, 0.077
979.500, 0.074
979.600, 0.075
979.700, 0.076
979.800, 0.079
979.900, 0.081
980.000, 0.088
980.100, 0.079
980.200, 0.086
980.300, 0.079
980.400, 0.088
980.500, 0.082
980.600, 0.072
980.700, 0.074
980.800, 0.080
980.900, 0.068
981.000, 0.071
981.100, 0.084
981.200, 0.083
981.300, 0.077
981.400, 0.084
981.500, 0.081
981.600, 0.079
981.700, 0.082
981.800, 0.072
981.900, 0.072
982.000, 0.077
982.100, 0.080
982.200, 0.076
982.300, 0.071
982.400, 0.070
982.500, 0.090
982.600, 0.078
982.700, 0.081
982.800, 0.085
982.900, 0.079
983.000, 0.085
983.100, 0.085
983.200, 0.090
983.300, 0.084
983.400, 0.087
983.500, 0.083
983.600, 0.080
983.700, 0.077
983.800, 0.085
983.900, 0.087
984.000, 0.078
984.100, 0.083
984.200, 0.080
984.300, 0.077
984.400, 0.090
984.500, 0.089
984.600, 0.076
984.700, 0.075
984.800, 0.070
984.900, 0.070
985.000, 0.071
985.100, 0.075
985.200, 0.077
985.300, 0.077
985.400, 0.079
985.500, 0.071
985.600, 0.065
985.700, 0.065
985.800, 0.078
985.900, 0.074
986.000, 0.073
986.100, 0.083
986.200, 0.083
986.300, 0.079
986.400, 0.080
986.500, 0.078
986.600, 0.073
986.700, 0.082
986.800, 0.076
986.900, 0.082
987.000, 0.081
987.100, 0.077
987.200, 0.075
987.300, 0.081
987.400, 0.071
987.500, 0.072
987.600, 0.081
987.700, 0.071
987.800, 0.076
987.900, 0.074
988.000, 0.090
988.100, 0.083
988.200, 0.077
988.300, 0.070
988.400, 0.076
988.500, 0.080
988.600, 0.078
988.700, 0.087
988.800, 0.080
988.900, 0.077
989.000, 0.078
989.100, 0.069
989.200, 0.074
989.300, 0.068
989.400, 0.077
989.500, 0.077
989.600, 0.074
989.700, 0.079
989.800, 0.072
989.900, 0.073
990.000, 0.085
990.100, 0.090
990.200, 0.081
990.300, 0.084
990.400, 0.080
990.500, 0.074
990.600, 0.069
990.700, 0.074
990.800, 0.070
990.900, 0.074
991.000, 0.074
991.100, 0.079
991.200, 0.083
991.300, 0.075
991.400, 0.075
991.500, 0.079
991.600, 0.072
991.700, 0.079
991.800, 0.070
991.900, 0.083
992.000, 0.085
992.100, 0.075
992.200, 0.079
992.300, 0.084
992.400, 0.075
992.500, 0.071
992.600, 0.079
992.700, 0.076
992.800, 0.070
992.900, 0.078
993.000, 0.071
993.100, 0.075
993.200, 0.070
993.300, 0.072
993.400, 0.079
993.500, 0.075
993.600, 0.092
993.700, 0.084
993.800, 0.085
993.900, 0.072
994.000, 0.073
994.100, 0.071
994.200, 0.072
994.300, 0.080
994.400, 0.082
994.500, 0.079
994.600, 0.081
994.700, 0.070
994.800, 0.074
994.900, 0.067
995.000, 0.072
995.100, 0.068
995.200, 0.076
995.300, 0.064
995.400, 0.075
995.500, 0.072
995.600, 0.080
995.700, 0.081
995.800, 0.081
995.900, 0.074
996.000, 0.078
996.100, 0.088
996.200, 0.081
996.300, 0.071
996.400, 0.079
996.500, 0.074
996.600, 0.073
996.700, 0.080
996.800, 0.072
996.900, 0.069
997.000, 0.063
997.100, 0.069
997.200, 0.074
997.300, 0.072
997.400, 0.070
997.500, 0.069
997.600, 0.076
997.700, 0.070
997.800, 0.070
997.900, 0.068
998.000, 0.076
998.100, 0.075
998.200, 0.070
998.300, 0.064
998.400, 0.060
998.500, 0.066
998.600, 0.065
998.700, 0.067
998.800, 0.064
998.900, 0.064
999.000, 0.062
999.100, 0.060
999.200, 0.062
999.300, 0.056
999.400, 0.065
999.500, 0.063
999.600, 0.060
999.700, 0.058
999.800, 0.062
999.900, 0.007
1000.000, 0.001
