Time (ps), RMSD (nm)
0.000, 0.001
0.100, 0.130
0.200, 0.144
0.300, 0.140
0.400, 0.142
0.500, 0.143
0.600, 0.148
0.700, 0.140
0.800, 0.143
0.900, 0.140
1.000, 0.134
1.100, 0.147
1.200, 0.143
1.300, 0.137
1.400, 0.143
1.500, 0.135
1.600, 0.138
1.700, 0.139
1.800, 0.146
1.900, 0.135
2.000, 0.144
2.100, 0.145
2.200, 0.152
2.300, 0.144
2.400, 0.151
2.500, 0.145
2.600, 0.146
2.700, 0.145
2.800, 0.144
2.900, 0.143
3.000, 0.151
3.100, 0.145
3.200, 0.150
3.300, 0.155
3.400, 0.155
3.500, 0.158
3.600, 0.159
3.700, 0.153
3.800, 0.154
3.900, 0.155
4.000, 0.148
4.100, 0.163
4.200, 0.164
4.300, 0.145
4.400, 0.145
4.500, 0.138
4.600, 0.151
4.700, 0.158
4.800, 0.142
4.900, 0.154
5.000, 0.163
5.100, 0.155
5.200, 0.150
5.300, 0.144
5.400, 0.159
5.500, 0.139
5.600, 0.140
5.700, 0.146
5.800, 0.141
5.900, 0.147
6.000, 0.146
6.100, 0.154
6.200, 0.142
6.300, 0.152
6.400, 0.142
6.500, 0.144
6.600, 0.139
6.700, 0.141
6.800, 0.139
6.900, 0.142
7.000, 0.147
7.100, 0.148
7.200, 0.148
7.300, 0.151
7.400, 0.148
7.500, 0.150
7.600, 0.145
7.700, 0.149
7.800, 0.155
7.900, 0.155
8.000, 0.152
8.100, 0.149
8.200, 0.143
8.300, 0.157
8.400, 0.154
8.500, 0.158
8.600, 0.157
8.700, 0.154
8.800, 0.144
8.900, 0.151
9.000, 0.147
9.100, 0.155
9.200, 0.153
9.300, 0.156
9.400, 0.143
9.500, 0.149
9.600, 0.143
9.700, 0.142
9.800, 0.137
9.900, 0.143
10.000, 0.135
10.100, 0.148
10.200, 0.147
10.300, 0.147
10.400, 0.145
10.500, 0.147
10.600, 0.146
10.700, 0.146
10.800, 0.140
10.900, 0.151
11.000, 0.152
11.100, 0.145
11.200, 0.149
11.300, 0.161
11.400, 0.152
11.500, 0.152
11.600, 0.144
11.700, 0.145
11.800, 0.147
11.900, 0.145
12.000, 0.146
12.100, 0.148
12.200, 0.153
12.300, 0.153
12.400, 0.158
12.500, 0.145
12.600, 0.155
12.700, 0.149
12.800, 0.155
12.900, 0.156
13.000, 0.157
13.100, 0.169
13.200, 0.154
13.300, 0.153
13.400, 0.160
13.500, 0.157
13.600, 0.153
13.700, 0.157
13.800, 0.155
13.900, 0.148
14.000, 0.156
14.100, 0.161
14.200, 0.164
14.300, 0.153
14.400, 0.156
14.500, 0.142
14.600, 0.145
14.700, 0.158
14.800, 0.155
14.900, 0.150
15.000, 0.145
15.100, 0.147
15.200, 0.150
15.300, 0.138
15.400, 0.138
15.500, 0.141
15.600, 0.144
15.700, 0.141
15.800, 0.141
15.900, 0.150
16.000, 0.152
16.100, 0.154
16.200, 0.157
16.300, 0.155
16.400, 0.153
16.500, 0.147
16.600, 0.143
16.700, 0.150
16.800, 0.165
16.900, 0.149
17.000, 0.150
17.100, 0.160
17.200, 0.161
17.300, 0.168
17.400, 0.157
17.500, 0.155
17.600, 0.149
17.700, 0.141
17.800, 0.147
17.900, 0.150
18.000, 0.154
18.100, 0.148
18.200, 0.149
18.300, 0.150
18.400, 0.149
18.500, 0.166
18.600, 0.164
18.700, 0.168
18.800, 0.168
18.900, 0.168
19.000, 0.161
19.100, 0.162
19.200, 0.168
19.300, 0.160
19.400, 0.160
19.500, 0.159
19.600, 0.155
19.700, 0.152
19.800, 0.156
19.900, 0.151
20.000, 0.160
20.100, 0.168
20.200, 0.158
20.300, 0.163
20.400, 0.167
20.500, 0.154
20.600, 0.153
20.700, 0.156
20.800, 0.155
20.900, 0.155
21.000, 0.159
21.100, 0.152
21.200, 0.158
21.300, 0.147
21.400, 0.147
21.500, 0.141
21.600, 0.132
21.700, 0.147
21.800, 0.151
21.900, 0.150
22.000, 0.136
22.100, 0.136
22.200, 0.139
22.300, 0.156
22.400, 0.158
22.500, 0.153
22.600, 0.157
22.700, 0.158
22.800, 0.164
22.900, 0.164
23.000, 0.159
23.100, 0.155
23.200, 0.154
23.300, 0.157
23.400, 0.147
23.500, 0.149
23.600, 0.152
23.700, 0.149
23.800, 0.151
23.900, 0.143
24.000, 0.149
24.100, 0.148
24.200, 0.152
24.300, 0.155
24.400, 0.152
24.500, 0.151
24.600, 0.157
24.700, 0.160
24.800, 0.154
24.900, 0.160
25.000, 0.148
25.100, 0.155
25.200, 0.151
25.300, 0.138
25.400, 0.152
25.500, 0.149
25.600, 0.144
25.700, 0.143
25.800, 0.143
25.900, 0.149
26.000, 0.146
26.100, 0.149
26.200, 0.142
26.300, 0.148
26.400, 0.151
26.500, 0.147
26.600, 0.156
26.700, 0.150
26.800, 0.162
26.900, 0.147
27.000, 0.151
27.100, 0.150
27.200, 0.143
27.300, 0.140
27.400, 0.154
27.500, 0.146
27.600, 0.145
27.700, 0.151
27.800, 0.142
27.900, 0.146
28.000, 0.150
28.100, 0.136
28.200, 0.145
28.300, 0.142
28.400, 0.150
28.500, 0.135
28.600, 0.148
28.700, 0.157
28.800, 0.143
28.900, 0.148
29.000, 0.144
29.100, 0.151
29.200, 0.148
29.300, 0.139
29.400, 0.141
29.500, 0.149
29.600, 0.144
29.700, 0.144
29.800, 0.142
29.900, 0.149
30.000, 0.156
30.100, 0.143
30.200, 0.145
30.300, 0.136
30.400, 0.141
30.500, 0.146
30.600, 0.143
30.700, 0.141
30.800, 0.147
30.900, 0.151
31.000, 0.147
31.100, 0.141
31.200, 0.141
31.300, 0.142
31.400, 0.134
31.500, 0.137
31.600, 0.141
31.700, 0.139
31.800, 0.134
31.900, 0.142
32.000, 0.142
32.100, 0.150
32.200, 0.150
32.300, 0.152
32.400, 0.148
32.500, 0.142
32.600, 0.149
32.700, 0.136
32.800, 0.137
32.900, 0.151
33.000, 0.138
33.100, 0.151
33.200, 0.143
33.300, 0.143
33.400, 0.146
33.500, 0.133
33.600, 0.152
33.700, 0.145
33.800, 0.142
33.900, 0.145
34.000, 0.147
34.100, 0.153
34.200, 0.150
34.300, 0.150
34.400, 0.151
34.500, 0.154
34.600, 0.143
34.700, 0.149
34.800, 0.138
34.900, 0.142
35.000, 0.152
35.100, 0.158
35.200, 0.144
35.300, 0.150
35.400, 0.148
35.500, 0.141
35.600, 0.138
35.700, 0.147
35.800, 0.146
35.900, 0.149
36.000, 0.146
36.100, 0.147
36.200, 0.137
36.300, 0.140
36.400, 0.148
36.500, 0.137
36.600, 0.134
36.700, 0.143
36.800, 0.140
36.900, 0.135
37.000, 0.129
37.100, 0.138
37.200, 0.147
37.300, 0.148
37.400, 0.141
37.500, 0.138
37.600, 0.151
37.700, 0.151
37.800, 0.146
37.900, 0.154
38.000, 0.142
38.100, 0.138
38.200, 0.147
38.300, 0.145
38.400, 0.144
38.500, 0.152
38.600, 0.153
38.700, 0.148
38.800, 0.149
38.900, 0.157
39.000, 0.142
39.100, 0.144
39.200, 0.140
39.300, 0.141
39.400, 0.142
39.500, 0.134
39.600, 0.135
39.700, 0.143
39.800, 0.138
39.900, 0.138
40.000, 0.139
40.100, 0.147
40.200, 0.143
40.300, 0.151
40.400, 0.136
40.500, 0.140
40.600, 0.135
40.700, 0.144
40.800, 0.131
40.900, 0.136
41.000, 0.143
41.100, 0.145
41.200, 0.147
41.300, 0.147
41.400, 0.141
41.500, 0.143
41.600, 0.155
41.700, 0.153
41.800, 0.146
41.900, 0.159
42.000, 0.155
42.100, 0.157
42.200, 0.162
42.300, 0.147
42.400, 0.151
42.500, 0.151
42.600, 0.151
42.700, 0.152
42.800, 0.152
42.900, 0.147
43.000, 0.152
43.100, 0.146
43.200, 0.152
43.300, 0.145
43.400, 0.153
43.500, 0.150
43.600, 0.155
43.700, 0.152
43.800, 0.158
43.900, 0.159
44.000, 0.151
44.100, 0.148
44.200, 0.140
44.300, 0.144
44.400, 0.152
44.500, 0.144
44.600, 0.142
44.700, 0.143
44.800, 0.140
44.900, 0.146
45.000, 0.158
45.100, 0.167
45.200, 0.149
45.300, 0.161
45.400, 0.159
45.500, 0.143
45.600, 0.153
45.700, 0.153
45.800, 0.144
45.900, 0.152
46.000, 0.155
46.100, 0.141
46.200, 0.145
46.300, 0.141
46.400, 0.152
46.500, 0.152
46.600, 0.144
46.700, 0.145
46.800, 0.154
46.900, 0.145
47.000, 0.159
47.100, 0.148
47.200, 0.154
47.300, 0.136
47.400, 0.161
47.500, 0.149
47.600, 0.149
47.700, 0.157
47.800, 0.152
47.900, 0.151
48.000, 0.142
48.100, 0.139
48.200, 0.157
48.300, 0.141
48.400, 0.152
48.500, 0.151
48.600, 0.155
48.700, 0.151
48.800, 0.154
48.900, 0.155
49.000, 0.161
49.100, 0.147
49.200, 0.156
49.300, 0.156
49.400, 0.157
49.500, 0.159
49.600, 0.159
49.700, 0.158
49.800, 0.153
49.900, 0.142
50.000, 0.147
50.100, 0.147
50.200, 0.138
50.300, 0.147
50.400, 0.145
50.500, 0.147
50.600, 0.151
50.700, 0.162
50.800, 0.150
50.900, 0.158
51.000, 0.155
51.100, 0.159
51.200, 0.163
51.300, 0.157
51.400, 0.153
51.500, 0.162
51.600, 0.157
51.700, 0.144
51.800, 0.151
51.900, 0.155
52.000, 0.156
52.100, 0.161
52.200, 0.147
52.300, 0.160
52.400, 0.152
52.500, 0.151
52.600, 0.143
52.700, 0.146
52.800, 0.161
52.900, 0.151
53.000, 0.156
53.100, 0.155
53.200, 0.154
53.300, 0.155
53.400, 0.144
53.500, 0.151
53.600, 0.148
53.700, 0.153
53.800, 0.148
53.900, 0.144
54.000, 0.139
54.100, 0.145
54.200, 0.147
54.300, 0.147
54.400, 0.154
54.500, 0.163
54.600, 0.154
54.700, 0.158
54.800, 0.163
54.900, 0.158
55.000, 0.152
55.100, 0.155
55.200, 0.158
55.300, 0.153
55.400, 0.151
55.500, 0.147
55.600, 0.147
55.700, 0.148
55.800, 0.155
55.900, 0.161
56.000, 0.162
56.100, 0.157
56.200, 0.155
56.300, 0.143
56.400, 0.162
56.500, 0.152
56.600, 0.153
56.700, 0.143
56.800, 0.147
56.900, 0.150
57.000, 0.158
57.100, 0.149
57.200, 0.155
57.300, 0.161
57.400, 0.151
57.500, 0.157
57.600, 0.153
57.700, 0.164
57.800, 0.151
57.900, 0.159
58.000, 0.154
58.100, 0.156
58.200, 0.158
58.300, 0.153
58.400, 0.147
58.500, 0.156
58.600, 0.160
58.700, 0.158
58.800, 0.164
58.900, 0.157
59.000, 0.149
59.100, 0.162
59.200, 0.163
59.300, 0.148
59.400, 0.159
59.500, 0.154
59.600, 0.160
59.700, 0.153
59.800, 0.146
59.900, 0.152
60.000, 0.162
60.100, 0.165
60.200, 0.157
60.300, 0.169
60.400, 0.168
60.500, 0.149
60.600, 0.152
60.700, 0.155
60.800, 0.151
60.900, 0.163
61.000, 0.165
61.100, 0.163
61.200, 0.159
61.300, 0.147
61.400, 0.143
61.500, 0.149
61.600, 0.152
61.700, 0.155
61.800, 0.150
61.900, 0.151
62.000, 0.154
62.100, 0.158
62.200, 0.159
62.300, 0.158
62.400, 0.160
62.500, 0.173
62.600, 0.153
62.700, 0.160
62.800, 0.155
62.900, 0.155
63.000, 0.163
63.100, 0.159
63.200, 0.152
63.300, 0.147
63.400, 0.150
63.500, 0.163
63.600, 0.161
63.700, 0.157
63.800, 0.156
63.900, 0.154
64.000, 0.152
64.100, 0.160
64.200, 0.162
64.300, 0.167
64.400, 0.154
64.500, 0.164
64.600, 0.162
64.700, 0.164
64.800, 0.155
64.900, 0.159
65.000, 0.150
65.100, 0.169
65.200, 0.167
65.300, 0.166
65.400, 0.162
65.500, 0.173
65.600, 0.170
65.700, 0.167
65.800, 0.172
65.900, 0.172
66.000, 0.173
66.100, 0.177
66.200, 0.160
66.300, 0.165
66.400, 0.175
66.500, 0.176
66.600, 0.178
66.700, 0.186
66.800, 0.166
66.900, 0.158
67.000, 0.153
67.100, 0.167
67.200, 0.161
67.300, 0.159
67.400, 0.161
67.500, 0.166
67.600, 0.160
67.700, 0.157
67.800, 0.162
67.900, 0.158
68.000, 0.169
68.100, 0.175
68.200, 0.175
68.300, 0.165
68.400, 0.162
68.500, 0.168
68.600, 0.168
68.700, 0.161
68.800, 0.160
68.900, 0.168
69.000, 0.164
69.100, 0.168
69.200, 0.168
69.300, 0.177
69.400, 0.171
69.500, 0.164
69.600, 0.161
69.700, 0.163
69.800, 0.164
69.900, 0.171
70.000, 0.159
70.100, 0.164
70.200, 0.157
70.300, 0.172
70.400, 0.170
70.500, 0.173
70.600, 0.176
70.700, 0.164
70.800, 0.160
70.900, 0.156
71.000, 0.162
71.100, 0.166
71.200, 0.160
71.300, 0.169
71.400, 0.176
71.500, 0.171
71.600, 0.169
71.700, 0.165
71.800, 0.161
71.900, 0.165
72.000, 0.168
72.100, 0.163
72.200, 0.164
72.300, 0.174
72.400, 0.175
72.500, 0.171
72.600, 0.174
72.700, 0.171
72.800, 0.167
72.900, 0.173
73.000, 0.162
73.100, 0.164
73.200, 0.158
73.300, 0.159
73.400, 0.161
73.500, 0.157
73.600, 0.168
73.700, 0.179
73.800, 0.166
73.900, 0.171
74.000, 0.170
74.100, 0.174
74.200, 0.166
74.300, 0.165
74.400, 0.168
74.500, 0.166
74.600, 0.162
74.700, 0.165
74.800, 0.169
74.900, 0.162
75.000, 0.167
75.100, 0.156
75.200, 0.160
75.300, 0.170
75.400, 0.168
75.500, 0.172
75.600, 0.169
75.700, 0.166
75.800, 0.169
75.900, 0.167
76.000, 0.168
76.100, 0.170
76.200, 0.162
76.300, 0.164
76.400, 0.159
76.500, 0.157
76.600, 0.157
76.700, 0.146
76.800, 0.158
76.900, 0.163
77.000, 0.171
77.100, 0.171
77.200, 0.163
77.300, 0.163
77.400, 0.159
77.500, 0.160
77.600, 0.166
77.700, 0.166
77.800, 0.161
77.900, 0.157
78.000, 0.156
78.100, 0.151
78.200, 0.166
78.300, 0.171
78.400, 0.160
78.500, 0.159
78.600, 0.164
78.700, 0.160
78.800, 0.156
78.900, 0.159
79.000, 0.156
79.100, 0.172
79.200, 0.164
79.300, 0.164
79.400, 0.167
79.500, 0.155
79.600, 0.157
79.700, 0.160
79.800, 0.157
79.900, 0.154
80.000, 0.163
80.100, 0.158
80.200, 0.152
80.300, 0.151
80.400, 0.157
80.500, 0.158
80.600, 0.162
80.700, 0.156
80.800, 0.163
80.900, 0.159
81.000, 0.166
81.100, 0.157
81.200, 0.156
81.300, 0.152
81.400, 0.157
81.500, 0.155
81.600, 0.154
81.700, 0.158
81.800, 0.148
81.900, 0.151
82.000, 0.155
82.100, 0.158
82.200, 0.157
82.300, 0.154
82.400, 0.148
82.500, 0.153
82.600, 0.147
82.700, 0.148
82.800, 0.159
82.900, 0.142
83.000, 0.145
83.100, 0.150
83.200, 0.160
83.300, 0.153
83.400, 0.158
83.500, 0.155
83.600, 0.159
83.700, 0.152
83.800, 0.169
83.900, 0.157
84.000, 0.159
84.100, 0.159
84.200, 0.163
84.300, 0.160
84.400, 0.156
84.500, 0.155
84.600, 0.156
84.700, 0.152
84.800, 0.152
84.900, 0.146
85.000, 0.150
85.100, 0.151
85.200, 0.150
85.300, 0.155
85.400, 0.152
85.500, 0.145
85.600, 0.135
85.700, 0.151
85.800, 0.148
85.900, 0.164
86.000, 0.160
86.100, 0.164
86.200, 0.167
86.300, 0.159
86.400, 0.149
86.500, 0.143
86.600, 0.157
86.700, 0.145
86.800, 0.153
86.900, 0.140
87.000, 0.158
87.100, 0.159
87.200, 0.165
87.300, 0.157
87.400, 0.158
87.500, 0.145
87.600, 0.159
87.700, 0.152
87.800, 0.146
87.900, 0.154
88.000, 0.152
88.100, 0.156
88.200, 0.153
88.300, 0.157
88.400, 0.159
88.500, 0.148
88.600, 0.154
88.700, 0.159
88.800, 0.149
88.900, 0.151
89.000, 0.158
89.100, 0.158
89.200, 0.155
89.300, 0.152
89.400, 0.145
89.500, 0.165
89.600, 0.161
89.700, 0.151
89.800, 0.145
89.900, 0.149
90.000, 0.153
90.100, 0.163
90.200, 0.146
90.300, 0.153
90.400, 0.156
90.500, 0.156
90.600, 0.157
90.700, 0.149
90.800, 0.156
90.900, 0.154
91.000, 0.152
91.100, 0.154
91.200, 0.165
91.300, 0.161
91.400, 0.162
91.500, 0.159
91.600, 0.153
91.700, 0.146
91.800, 0.156
91.900, 0.145
92.000, 0.145
92.100, 0.153
92.200, 0.158
92.300, 0.152
92.400, 0.152
92.500, 0.156
92.600, 0.154
92.700, 0.143
92.800, 0.148
92.900, 0.153
93.000, 0.146
93.100, 0.146
93.200, 0.145
93.300, 0.148
93.400, 0.143
93.500, 0.150
93.600, 0.149
93.700, 0.149
93.800, 0.158
93.900, 0.151
94.000, 0.162
94.100, 0.166
94.200, 0.159
94.300, 0.161
94.400, 0.156
94.500, 0.159
94.600, 0.169
94.700, 0.151
94.800, 0.140
94.900, 0.148
95.000, 0.155
95.100, 0.159
95.200, 0.159
95.300, 0.164
95.400, 0.155
95.500, 0.170
95.600, 0.170
95.700, 0.158
95.800, 0.155
95.900, 0.162
96.000, 0.161
96.100, 0.162
96.200, 0.166
96.300, 0.156
96.400, 0.157
96.500, 0.165
96.600, 0.166
96.700, 0.166
96.800, 0.155
96.900, 0.150
97.000, 0.165
97.100, 0.153
97.200, 0.156
97.300, 0.155
97.400, 0.154
97.500, 0.170
97.600, 0.165
97.700, 0.173
97.800, 0.155
97.900, 0.168
98.000, 0.154
98.100, 0.152
98.200, 0.153
98.300, 0.169
98.400, 0.169
98.500, 0.167
98.600, 0.167
98.700, 0.170
98.800, 0.158
98.900, 0.159
99.000, 0.166
99.100, 0.159
99.200, 0.167
99.300, 0.158
99.400, 0.164
99.500, 0.167
99.600, 0.164
99.700, 0.161
99.800, 0.158
99.900, 0.163
100.000, 0.153
100.100, 0.164
100.200, 0.158
100.300, 0.167
100.400, 0.168
100.500, 0.171
100.600, 0.163
100.700, 0.164
100.800, 0.165
100.900, 0.152
101.000, 0.157
101.100, 0.157
101.200, 0.153
101.300, 0.164
101.400, 0.169
101.500, 0.160
101.600, 0.145
101.700, 0.149
101.800, 0.145
101.900, 0.140
102.000, 0.151
102.100, 0.145
102.200, 0.145
102.300, 0.138
102.400, 0.138
102.500, 0.141
102.600, 0.141
102.700, 0.137
102.800, 0.137
102.900, 0.147
103.000, 0.153
103.100, 0.142
103.200, 0.147
103.300, 0.140
103.400, 0.147
103.500, 0.144
103.600, 0.156
103.700, 0.151
103.800, 0.155
103.900, 0.149
104.000, 0.153
104.100, 0.151
104.200, 0.152
104.300, 0.154
104.400, 0.152
104.500, 0.150
104.600, 0.146
104.700, 0.153
104.800, 0.143
104.900, 0.141
105.000, 0.145
105.100, 0.141
105.200, 0.147
105.300, 0.145
105.400, 0.151
105.500, 0.161
105.600, 0.155
105.700, 0.156
105.800, 0.153
105.900, 0.159
106.000, 0.155
106.100, 0.155
106.200, 0.155
106.300, 0.155
106.400, 0.152
106.500, 0.158
106.600, 0.164
106.700, 0.158
106.800, 0.152
106.900, 0.151
107.000, 0.164
107.100, 0.158
107.200, 0.159
107.300, 0.160
107.400, 0.154
107.500, 0.154
107.600, 0.171
107.700, 0.154
107.800, 0.148
107.900, 0.147
108.000, 0.150
108.100, 0.148
108.200, 0.158
108.300, 0.164
108.400, 0.166
108.500, 0.156
108.600, 0.156
108.700, 0.166
108.800, 0.155
108.900, 0.162
109.000, 0.148
109.100, 0.158
109.200, 0.146
109.300, 0.154
109.400, 0.151
109.500, 0.157
109.600, 0.147
109.700, 0.144
109.800, 0.155
109.900, 0.163
110.000, 0.154
110.100, 0.150
110.200, 0.150
110.300, 0.149
110.400, 0.143
110.500, 0.146
110.600, 0.150
110.700, 0.146
110.800, 0.151
110.900, 0.154
111.000, 0.152
111.100, 0.155
111.200, 0.153
111.300, 0.162
111.400, 0.157
111.500, 0.168
111.600, 0.166
111.700, 0.157
111.800, 0.150
111.900, 0.158
112.000, 0.155
112.100, 0.158
112.200, 0.156
112.300, 0.166
112.400, 0.167
112.500, 0.163
112.600, 0.163
112.700, 0.170
112.800, 0.165
112.900, 0.158
113.000, 0.149
113.100, 0.158
113.200, 0.150
113.300, 0.169
113.400, 0.171
113.500, 0.165
113.600, 0.156
113.700, 0.157
113.800, 0.158
113.900, 0.158
114.000, 0.160
114.100, 0.161
114.200, 0.148
114.300, 0.150
114.400, 0.161
114.500, 0.165
114.600, 0.155
114.700, 0.142
114.800, 0.139
114.900, 0.148
115.000, 0.153
115.100, 0.157
115.200, 0.150
115.300, 0.164
115.400, 0.165
115.500, 0.165
115.600, 0.164
115.700, 0.155
115.800, 0.155
115.900, 0.158
116.000, 0.164
116.100, 0.154
116.200, 0.158
116.300, 0.150
116.400, 0.147
116.500, 0.157
116.600, 0.158
116.700, 0.152
116.800, 0.158
116.900, 0.154
117.000, 0.157
117.100, 0.152
117.200, 0.151
117.300, 0.148
117.400, 0.154
117.500, 0.156
117.600, 0.153
117.700, 0.152
117.800, 0.163
117.900, 0.154
118.000, 0.156
118.100, 0.150
118.200, 0.161
118.300, 0.160
118.400, 0.160
118.500, 0.169
118.600, 0.162
118.700, 0.157
118.800, 0.155
118.900, 0.152
119.000, 0.158
119.100, 0.160
119.200, 0.159
119.300, 0.159
119.400, 0.149
119.500, 0.147
119.600, 0.157
119.700, 0.156
119.800, 0.155
119.900, 0.160
120.000, 0.148
120.100, 0.160
120.200, 0.151
120.300, 0.151
120.400, 0.160
120.500, 0.154
120.600, 0.158
120.700, 0.154
120.800, 0.164
120.900, 0.158
121.000, 0.162
121.100, 0.162
121.200, 0.156
121.300, 0.161
121.400, 0.167
121.500, 0.163
121.600, 0.156
121.700, 0.152
121.800, 0.159
121.900, 0.154
122.000, 0.156
122.100, 0.157
122.200, 0.153
122.300, 0.147
122.400, 0.155
122.500, 0.151
122.600, 0.154
122.700, 0.149
122.800, 0.146
122.900, 0.154
123.000, 0.162
123.100, 0.158
123.200, 0.152
123.300, 0.152
123.400, 0.157
123.500, 0.152
123.600, 0.154
123.700, 0.155
123.800, 0.166
123.900, 0.162
124.000, 0.166
124.100, 0.165
124.200, 0.164
124.300, 0.152
124.400, 0.155
124.500, 0.168
124.600, 0.170
124.700, 0.165
124.800, 0.180
124.900, 0.178
125.000, 0.176
125.100, 0.160
125.200, 0.170
125.300, 0.166
125.400, 0.160
125.500, 0.157
125.600, 0.161
125.700, 0.161
125.800, 0.156
125.900, 0.164
126.000, 0.167
126.100, 0.166
126.200, 0.180
126.300, 0.161
126.400, 0.167
126.500, 0.168
126.600, 0.169
126.700, 0.159
126.800, 0.156
126.900, 0.164
127.000, 0.162
127.100, 0.150
127.200, 0.155
127.300, 0.161
127.400, 0.158
127.500, 0.158
127.600, 0.163
127.700, 0.153
127.800, 0.150
127.900, 0.155
128.000, 0.167
128.100, 0.164
128.200, 0.156
128.300, 0.144
128.400, 0.138
128.500, 0.134
128.600, 0.137
128.700, 0.143
128.800, 0.129
128.900, 0.130
129.000, 0.126
129.100, 0.140
129.200, 0.129
129.300, 0.137
129.400, 0.135
129.500, 0.145
129.600, 0.137
129.700, 0.135
129.800, 0.135
129.900, 0.139
130.000, 0.144
130.100, 0.129
130.200, 0.144
130.300, 0.129
130.400, 0.127
130.500, 0.139
130.600, 0.139
130.700, 0.138
130.800, 0.145
130.900, 0.142
131.000, 0.141
131.100, 0.130
131.200, 0.137
131.300, 0.140
131.400, 0.140
131.500, 0.129
131.600, 0.130
131.700, 0.128
131.800, 0.122
131.900, 0.132
132.000, 0.128
132.100, 0.124
132.200, 0.130
132.300, 0.132
132.400, 0.130
132.500, 0.139
132.600, 0.143
132.700, 0.137
132.800, 0.136
132.900, 0.145
133.000, 0.132
133.100, 0.138
133.200, 0.130
133.300, 0.137
133.400, 0.134
133.500, 0.125
133.600, 0.132
133.700, 0.135
133.800, 0.128
133.900, 0.137
134.000, 0.129
134.100, 0.136
134.200, 0.143
134.300, 0.141
134.400, 0.141
134.500, 0.157
134.600, 0.139
134.700, 0.141
134.800, 0.150
134.900, 0.140
135.000, 0.140
135.100, 0.144
135.200, 0.140
135.300, 0.141
135.400, 0.133
135.500, 0.155
135.600, 0.146
135.700, 0.140
135.800, 0.136
135.900, 0.134
136.000, 0.128
136.100, 0.125
136.200, 0.131
136.300, 0.144
136.400, 0.138
136.500, 0.146
136.600, 0.149
136.700, 0.150
136.800, 0.142
136.900, 0.130
137.000, 0.138
137.100, 0.135
137.200, 0.150
137.300, 0.135
137.400, 0.138
137.500, 0.134
137.600, 0.137
137.700, 0.138
137.800, 0.145
137.900, 0.144
138.000, 0.146
138.100, 0.151
138.200, 0.149
138.300, 0.134
138.400, 0.145
138.500, 0.145
138.600, 0.139
138.700, 0.143
138.800, 0.129
138.900, 0.139
139.000, 0.130
139.100, 0.131
139.200, 0.139
139.300, 0.136
139.400, 0.132
139.500, 0.141
139.600, 0.143
139.700, 0.137
139.800, 0.141
139.900, 0.141
140.000, 0.135
140.100, 0.133
140.200, 0.133
140.300, 0.132
140.400, 0.130
140.500, 0.141
140.600, 0.136
140.700, 0.136
140.800, 0.136
140.900, 0.134
141.000, 0.128
141.100, 0.136
141.200, 0.143
141.300, 0.135
141.400, 0.128
141.500, 0.134
141.600, 0.132
141.700, 0.124
141.800, 0.136
141.900, 0.138
142.000, 0.129
142.100, 0.137
142.200, 0.130
142.300, 0.133
142.400, 0.141
142.500, 0.130
142.600, 0.123
142.700, 0.136
142.800, 0.133
142.900, 0.132
143.000, 0.141
143.100, 0.136
143.200, 0.138
143.300, 0.150
143.400, 0.148
143.500, 0.147
143.600, 0.138
143.700, 0.128
143.800, 0.124
143.900, 0.130
144.000, 0.125
144.100, 0.136
144.200, 0.148
144.300, 0.145
144.400, 0.143
144.500, 0.137
144.600, 0.139
144.700, 0.136
144.800, 0.141
144.900, 0.129
145.000, 0.139
145.100, 0.133
145.200, 0.125
145.300, 0.134
145.400, 0.138
145.500, 0.128
145.600, 0.134
145.700, 0.154
145.800, 0.143
145.900, 0.136
146.000, 0.128
146.100, 0.141
146.200, 0.132
146.300, 0.136
146.400, 0.138
146.500, 0.136
146.600, 0.128
146.700, 0.125
146.800, 0.126
146.900, 0.130
147.000, 0.133
147.100, 0.126
147.200, 0.130
147.300, 0.142
147.400, 0.134
147.500, 0.127
147.600, 0.128
147.700, 0.135
147.800, 0.130
147.900, 0.123
148.000, 0.130
148.100, 0.136
148.200, 0.132
148.300, 0.130
148.400, 0.136
148.500, 0.140
148.600, 0.137
148.700, 0.130
148.800, 0.127
148.900, 0.127
149.000, 0.125
149.100, 0.124
149.200, 0.129
149.300, 0.126
149.400, 0.125
149.500, 0.133
149.600, 0.127
149.700, 0.134
149.800, 0.132
149.900, 0.126
150.000, 0.125
150.100, 0.122
150.200, 0.127
150.300, 0.129
150.400, 0.132
150.500, 0.130
150.600, 0.130
150.700, 0.133
150.800, 0.124
150.900, 0.131
151.000, 0.139
151.100, 0.120
151.200, 0.136
151.300, 0.121
151.400, 0.118
151.500, 0.116
151.600, 0.121
151.700, 0.121
151.800, 0.122
151.900, 0.113
152.000, 0.111
152.100, 0.124
152.200, 0.124
152.300, 0.122
152.400, 0.120
152.500, 0.120
152.600, 0.122
152.700, 0.140
152.800, 0.127
152.900, 0.127
153.000, 0.125
153.100, 0.121
153.200, 0.117
153.300, 0.119
153.400, 0.125
153.500, 0.122
153.600, 0.119
153.700, 0.118
153.800, 0.108
153.900, 0.119
154.000, 0.116
154.100, 0.112
154.200, 0.111
154.300, 0.110
154.400, 0.110
154.500, 0.122
154.600, 0.114
154.700, 0.121
154.800, 0.120
154.900, 0.118
155.000, 0.117
155.100, 0.116
155.200, 0.112
155.300, 0.114
155.400, 0.123
155.500, 0.121
155.600, 0.119
155.700, 0.113
155.800, 0.116
155.900, 0.113
156.000, 0.114
156.100, 0.112
156.200, 0.115
156.300, 0.112
156.400, 0.111
156.500, 0.107
156.600, 0.116
156.700, 0.116
156.800, 0.113
156.900, 0.113
157.000, 0.109
157.100, 0.110
157.200, 0.111
157.300, 0.112
157.400, 0.117
157.500, 0.103
157.600, 0.126
157.700, 0.125
157.800, 0.120
157.900, 0.118
158.000, 0.113
158.100, 0.113
158.200, 0.120
158.300, 0.116
158.400, 0.108
158.500, 0.116
158.600, 0.116
158.700, 0.111
158.800, 0.116
158.900, 0.108
159.000, 0.109
159.100, 0.107
159.200, 0.116
159.300, 0.110
159.400, 0.114
159.500, 0.107
159.600, 0.113
159.700, 0.106
159.800, 0.102
159.900, 0.099
160.000, 0.103
160.100, 0.109
160.200, 0.118
160.300, 0.118
160.400, 0.114
160.500, 0.110
160.600, 0.117
160.700, 0.112
160.800, 0.118
160.900, 0.114
161.000, 0.119
161.100, 0.107
161.200, 0.120
161.300, 0.113
161.400, 0.115
161.500, 0.121
161.600, 0.114
161.700, 0.121
161.800, 0.119
161.900, 0.118
162.000, 0.118
162.100, 0.119
162.200, 0.115
162.300, 0.116
162.400, 0.107
162.500, 0.111
162.600, 0.113
162.700, 0.109
162.800, 0.111
162.900, 0.121
163.000, 0.120
163.100, 0.112
163.200, 0.118
163.300, 0.125
163.400, 0.123
163.500, 0.119
163.600, 0.118
163.700, 0.122
163.800, 0.126
163.900, 0.120
164.000, 0.110
164.100, 0.121
164.200, 0.120
164.300, 0.128
164.400, 0.127
164.500, 0.128
164.600, 0.132
164.700, 0.130
164.800, 0.128
164.900, 0.130
165.000, 0.121
165.100, 0.121
165.200, 0.123
165.300, 0.117
165.400, 0.124
165.500, 0.121
165.600, 0.115
165.700, 0.120
165.800, 0.122
165.900, 0.123
166.000, 0.121
166.100, 0.115
166.200, 0.118
166.300, 0.118
166.400, 0.123
166.500, 0.123
166.600, 0.117
166.700, 0.132
166.800, 0.126
166.900, 0.109
167.000, 0.123
167.100, 0.126
167.200, 0.132
167.300, 0.131
167.400, 0.124
167.500, 0.130
167.600, 0.140
167.700, 0.137
167.800, 0.139
167.900, 0.120
168.000, 0.127
168.100, 0.118
168.200, 0.129
168.300, 0.120
168.400, 0.128
168.500, 0.116
168.600, 0.127
168.700, 0.118
168.800, 0.130
168.900, 0.127
169.000, 0.121
169.100, 0.125
169.200, 0.118
169.300, 0.121
169.400, 0.114
169.500, 0.121
169.600, 0.117
169.700, 0.110
169.800, 0.108
169.900, 0.118
170.000, 0.122
170.100, 0.117
170.200, 0.118
170.300, 0.112
170.400, 0.117
170.500, 0.116
170.600, 0.110
170.700, 0.111
170.800, 0.112
170.900, 0.120
171.000, 0.115
171.100, 0.108
171.200, 0.105
171.300, 0.111
171.400, 0.108
171.500, 0.117
171.600, 0.115
171.700, 0.110
171.800, 0.121
171.900, 0.118
172.000, 0.113
172.100, 0.117
172.200, 0.114
172.300, 0.115
172.400, 0.108
172.500, 0.111
172.600, 0.113
172.700, 0.116
172.800, 0.108
172.900, 0.107
173.000, 0.114
173.100, 0.119
173.200, 0.116
173.300, 0.124
173.400, 0.120
173.500, 0.127
173.600, 0.120
173.700, 0.109
173.800, 0.108
173.900, 0.119
174.000, 0.109
174.100, 0.101
174.200, 0.107
174.300, 0.113
174.400, 0.114
174.500, 0.122
174.600, 0.114
174.700, 0.124
174.800, 0.109
174.900, 0.113
175.000, 0.119
175.100, 0.110
175.200, 0.110
175.300, 0.120
175.400, 0.123
175.500, 0.117
175.600, 0.113
175.700, 0.111
175.800, 0.105
175.900, 0.112
176.000, 0.111
176.100, 0.113
176.200, 0.113
176.300, 0.117
176.400, 0.120
176.500, 0.119
176.600, 0.118
176.700, 0.109
176.800, 0.118
176.900, 0.117
177.000, 0.118
177.100, 0.129
177.200, 0.110
177.300, 0.126
177.400, 0.115
177.500, 0.114
177.600, 0.118
177.700, 0.117
177.800, 0.113
177.900, 0.109
178.000, 0.112
178.100, 0.111
178.200, 0.111
178.300, 0.111
178.400, 0.116
178.500, 0.114
178.600, 0.118
178.700, 0.119
178.800, 0.127
178.900, 0.117
179.000, 0.128
179.100, 0.118
179.200, 0.116
179.300, 0.123
179.400, 0.119
179.500, 0.120
179.600, 0.112
179.700, 0.109
179.800, 0.103
179.900, 0.116
180.000, 0.112
180.100, 0.110
180.200, 0.114
180.300, 0.111
180.400, 0.118
180.500, 0.107
180.600, 0.110
180.700, 0.115
180.800, 0.112
180.900, 0.105
181.000, 0.108
181.100, 0.111
181.200, 0.112
181.300, 0.121
181.400, 0.105
181.500, 0.112
181.600, 0.109
181.700, 0.116
181.800, 0.115
181.900, 0.106
182.000, 0.115
182.100, 0.114
182.200, 0.117
182.300, 0.112
182.400, 0.116
182.500, 0.120
182.600, 0.114
182.700, 0.112
182.800, 0.107
182.900, 0.112
183.000, 0.117
183.100, 0.110
183.200, 0.116
183.300, 0.122
183.400, 0.118
183.500, 0.116
183.600, 0.114
183.700, 0.116
183.800, 0.115
183.900, 0.122
184.000, 0.123
184.100, 0.126
184.200, 0.128
184.300, 0.122
184.400, 0.125
184.500, 0.122
184.600, 0.110
184.700, 0.115
184.800, 0.132
184.900, 0.119
185.000, 0.121
185.100, 0.115
185.200, 0.126
185.300, 0.126
185.400, 0.130
185.500, 0.132
185.600, 0.130
185.700, 0.122
185.800, 0.113
185.900, 0.120
186.000, 0.123
186.100, 0.125
186.200, 0.125
186.300, 0.120
186.400, 0.119
186.500, 0.117
186.600, 0.120
186.700, 0.120
186.800, 0.118
186.900, 0.108
187.000, 0.119
187.100, 0.122
187.200, 0.113
187.300, 0.127
187.400, 0.130
187.500, 0.129
187.600, 0.123
187.700, 0.128
187.800, 0.133
187.900, 0.122
188.000, 0.128
188.100, 0.123
188.200, 0.123
188.300, 0.133
188.400, 0.130
188.500, 0.132
188.600, 0.129
188.700, 0.137
188.800, 0.128
188.900, 0.126
189.000, 0.129
189.100, 0.127
189.200, 0.113
189.300, 0.110
189.400, 0.116
189.500, 0.106
189.600, 0.106
189.700, 0.115
189.800, 0.117
189.900, 0.115
190.000, 0.113
190.100, 0.107
190.200, 0.104
190.300, 0.110
190.400, 0.110
190.500, 0.110
190.600, 0.119
190.700, 0.117
190.800, 0.110
190.900, 0.118
191.000, 0.118
191.100, 0.118
191.200, 0.111
191.300, 0.127
191.400, 0.139
191.500, 0.116
191.600, 0.111
191.700, 0.119
191.800, 0.119
191.900, 0.118
192.000, 0.118
192.100, 0.123
192.200, 0.126
192.300, 0.119
192.400, 0.125
192.500, 0.117
192.600, 0.108
192.700, 0.119
192.800, 0.116
192.900, 0.113
193.000, 0.121
193.100, 0.123
193.200, 0.120
193.300, 0.118
193.400, 0.122
193.500, 0.128
193.600, 0.126
193.700, 0.124
193.800, 0.113
193.900, 0.113
194.000, 0.105
194.100, 0.105
194.200, 0.109
194.300, 0.108
194.400, 0.111
194.500, 0.116
194.600, 0.114
194.700, 0.112
194.800, 0.117
194.900, 0.129
195.000, 0.118
195.100, 0.118
195.200, 0.124
195.300, 0.114
195.400, 0.121
195.500, 0.117
195.600, 0.111
195.700, 0.111
195.800, 0.119
195.900, 0.115
196.000, 0.114
196.100, 0.109
196.200, 0.107
196.300, 0.112
196.400, 0.107
196.500, 0.120
196.600, 0.107
196.700, 0.108
196.800, 0.102
196.900, 0.110
197.000, 0.113
197.100, 0.106
197.200, 0.105
197.300, 0.110
197.400, 0.102
197.500, 0.107
197.600, 0.122
197.700, 0.123
197.800, 0.112
197.900, 0.128
198.000, 0.119
198.100, 0.115
198.200, 0.110
198.300, 0.120
198.400, 0.117
198.500, 0.118
198.600, 0.119
198.700, 0.130
198.800, 0.124
198.900, 0.125
199.000, 0.121
199.100, 0.127
199.200, 0.122
199.300, 0.113
199.400, 0.119
199.500, 0.111
199.600, 0.113
199.700, 0.124
199.800, 0.133
199.900, 0.116
200.000, 0.119
200.100, 0.119
200.200, 0.118
200.300, 0.116
200.400, 0.121
200.500, 0.120
200.600, 0.116
200.700, 0.118
200.800, 0.117
200.900, 0.108
201.000, 0.118
201.100, 0.124
201.200, 0.111
201.300, 0.122
201.400, 0.114
201.500, 0.127
201.600, 0.126
201.700, 0.120
201.800, 0.123
201.900, 0.115
202.000, 0.113
202.100, 0.113
202.200, 0.120
202.300, 0.121
202.400, 0.122
202.500, 0.123
202.600, 0.124
202.700, 0.131
202.800, 0.123
202.900, 0.122
203.000, 0.113
203.100, 0.115
203.200, 0.122
203.300, 0.120
203.400, 0.117
203.500, 0.127
203.600, 0.125
203.700, 0.109
203.800, 0.113
203.900, 0.111
204.000, 0.115
204.100, 0.120
204.200, 0.124
204.300, 0.120
204.400, 0.114
204.500, 0.122
204.600, 0.115
204.700, 0.119
204.800, 0.127
204.900, 0.125
205.000, 0.123
205.100, 0.124
205.200, 0.127
205.300, 0.123
205.400, 0.120
205.500, 0.111
205.600, 0.117
205.700, 0.121
205.800, 0.128
205.900, 0.122
206.000, 0.120
206.100, 0.121
206.200, 0.113
206.300, 0.120
206.400, 0.122
206.500, 0.137
206.600, 0.129
206.700, 0.124
206.800, 0.123
206.900, 0.121
207.000, 0.130
207.100, 0.125
207.200, 0.115
207.300, 0.126
207.400, 0.125
207.500, 0.127
207.600, 0.120
207.700, 0.120
207.800, 0.121
207.900, 0.121
208.000, 0.123
208.100, 0.126
208.200, 0.122
208.300, 0.128
208.400, 0.126
208.500, 0.114
208.600, 0.121
208.700, 0.123
208.800, 0.124
208.900, 0.120
209.000, 0.124
209.100, 0.121
209.200, 0.124
209.300, 0.123
209.400, 0.123
209.500, 0.121
209.600, 0.125
209.700, 0.127
209.800, 0.123
209.900, 0.126
210.000, 0.127
210.100, 0.123
210.200, 0.129
210.300, 0.129
210.400, 0.131
210.500, 0.123
210.600, 0.132
210.700, 0.146
210.800, 0.128
210.900, 0.124
211.000, 0.137
211.100, 0.132
211.200, 0.124
211.300, 0.127
211.400, 0.119
211.500, 0.134
211.600, 0.130
211.700, 0.127
211.800, 0.130
211.900, 0.128
212.000, 0.121
212.100, 0.120
212.200, 0.121
212.300, 0.122
212.400, 0.121
212.500, 0.126
212.600, 0.126
212.700, 0.126
212.800, 0.113
212.900, 0.121
213.000, 0.116
213.100, 0.123
213.200, 0.132
213.300, 0.124
213.400, 0.121
213.500, 0.129
213.600, 0.126
213.700, 0.131
213.800, 0.125
213.900, 0.125
214.000, 0.118
214.100, 0.123
214.200, 0.132
214.300, 0.136
214.400, 0.132
214.500, 0.140
214.600, 0.119
214.700, 0.120
214.800, 0.117
214.900, 0.111
215.000, 0.106
215.100, 0.115
215.200, 0.120
215.300, 0.122
215.400, 0.118
215.500, 0.121
215.600, 0.123
215.700, 0.117
215.800, 0.115
215.900, 0.111
216.000, 0.118
216.100, 0.121
216.200, 0.117
216.300, 0.117
216.400, 0.107
216.500, 0.116
216.600, 0.115
216.700, 0.122
216.800, 0.111
216.900, 0.114
217.000, 0.114
217.100, 0.119
217.200, 0.120
217.300, 0.117
217.400, 0.120
217.500, 0.111
217.600, 0.113
217.700, 0.115
217.800, 0.110
217.900, 0.111
218.000, 0.113
218.100, 0.113
218.200, 0.120
218.300, 0.126
218.400, 0.116
218.500, 0.125
218.600, 0.122
218.700, 0.120
218.800, 0.122
218.900, 0.127
219.000, 0.137
219.100, 0.130
219.200, 0.127
219.300, 0.132
219.400, 0.117
219.500, 0.117
219.600, 0.127
219.700, 0.124
219.800, 0.121
219.900, 0.117
220.000, 0.112
220.100, 0.123
220.200, 0.130
220.300, 0.127
220.400, 0.124
220.500, 0.121
220.600, 0.121
220.700, 0.121
220.800, 0.117
220.900, 0.115
221.000, 0.116
221.100, 0.117
221.200, 0.125
221.300, 0.115
221.400, 0.121
221.500, 0.121
221.600, 0.118
221.700, 0.118
221.800, 0.119
221.900, 0.121
222.000, 0.121
222.100, 0.111
222.200, 0.123
222.300, 0.131
222.400, 0.129
222.500, 0.125
222.600, 0.130
222.700, 0.119
222.800, 0.119
222.900, 0.121
223.000, 0.125
223.100, 0.116
223.200, 0.122
223.300, 0.129
223.400, 0.120
223.500, 0.115
223.600, 0.126
223.700, 0.130
223.800, 0.131
223.900, 0.133
224.000, 0.129
224.100, 0.122
224.200, 0.129
224.300, 0.115
224.400, 0.121
224.500, 0.117
224.600, 0.115
224.700, 0.114
224.800, 0.131
224.900, 0.119
225.000, 0.120
225.100, 0.116
225.200, 0.114
225.300, 0.115
225.400, 0.123
225.500, 0.115
225.600, 0.112
225.700, 0.119
225.800, 0.108
225.900, 0.108
226.000, 0.121
226.100, 0.119
226.200, 0.111
226.300, 0.124
226.400, 0.114
226.500, 0.112
226.600, 0.110
226.700, 0.110
226.800, 0.110
226.900, 0.110
227.000, 0.112
227.100, 0.124
227.200, 0.119
227.300, 0.121
227.400, 0.118
227.500, 0.122
227.600, 0.115
227.700, 0.109
227.800, 0.116
227.900, 0.118
228.000, 0.111
228.100, 0.118
228.200, 0.118
228.300, 0.113
228.400, 0.112
228.500, 0.110
228.600, 0.108
228.700, 0.111
228.800, 0.113
228.900, 0.113
229.000, 0.116
229.100, 0.114
229.200, 0.116
229.300, 0.122
229.400, 0.112
229.500, 0.111
229.600, 0.115
229.700, 0.108
229.800, 0.118
229.900, 0.119
230.000, 0.111
230.100, 0.114
230.200, 0.104
230.300, 0.117
230.400, 0.108
230.500, 0.115
230.600, 0.117
230.700, 0.121
230.800, 0.117
230.900, 0.121
231.000, 0.126
231.100, 0.128
231.200, 0.125
231.300, 0.126
231.400, 0.118
231.500, 0.123
231.600, 0.114
231.700, 0.120
231.800, 0.122
231.900, 0.109
232.000, 0.109
232.100, 0.109
232.200, 0.113
232.300, 0.109
232.400, 0.118
232.500, 0.117
232.600, 0.120
232.700, 0.107
232.800, 0.113
232.900, 0.106
233.000, 0.108
233.100, 0.108
233.200, 0.119
233.300, 0.122
233.400, 0.119
233.500, 0.120
233.600, 0.122
233.700, 0.128
233.800, 0.121
233.900, 0.111
234.000, 0.115
234.100, 0.121
234.200, 0.129
234.300, 0.125
234.400, 0.120
234.500, 0.119
234.600, 0.125
234.700, 0.118
234.800, 0.117
234.900, 0.118
235.000, 0.113
235.100, 0.111
235.200, 0.109
235.300, 0.124
235.400, 0.121
235.500, 0.118
235.600, 0.110
235.700, 0.110
235.800, 0.118
235.900, 0.123
236.000, 0.119
236.100, 0.122
236.200, 0.123
236.300, 0.117
236.400, 0.126
236.500, 0.123
236.600, 0.119
236.700, 0.118
236.800, 0.117
236.900, 0.116
237.000, 0.115
237.100, 0.122
237.200, 0.114
237.300, 0.116
237.400, 0.112
237.500, 0.114
237.600, 0.114
237.700, 0.113
237.800, 0.109
237.900, 0.110
238.000, 0.110
238.100, 0.105
238.200, 0.102
238.300, 0.102
238.400, 0.107
238.500, 0.102
238.600, 0.108
238.700, 0.116
238.800, 0.107
238.900, 0.115
239.000, 0.102
239.100, 0.104
239.200, 0.107
239.300, 0.117
239.400, 0.120
239.500, 0.099
239.600, 0.106
239.700, 0.105
239.800, 0.097
239.900, 0.104
240.000, 0.099
240.100, 0.109
240.200, 0.101
240.300, 0.103
240.400, 0.103
240.500, 0.103
240.600, 0.111
240.700, 0.097
240.800, 0.110
240.900, 0.107
241.000, 0.106
241.100, 0.106
241.200, 0.100
241.300, 0.105
241.400, 0.098
241.500, 0.113
241.600, 0.101
241.700, 0.108
241.800, 0.111
241.900, 0.108
242.000, 0.104
242.100, 0.106
242.200, 0.100
242.300, 0.100
242.400, 0.100
242.500, 0.101
242.600, 0.101
242.700, 0.102
242.800, 0.099
242.900, 0.094
243.000, 0.097
243.100, 0.099
243.200, 0.100
243.300, 0.101
243.400, 0.103
243.500, 0.104
243.600, 0.108
243.700, 0.108
243.800, 0.109
243.900, 0.112
244.000, 0.105
244.100, 0.105
244.200, 0.108
244.300, 0.113
244.400, 0.105
244.500, 0.105
244.600, 0.105
244.700, 0.097
244.800, 0.105
244.900, 0.101
245.000, 0.095
245.100, 0.095
245.200, 0.100
245.300, 0.095
245.400, 0.101
245.500, 0.097
245.600, 0.093
245.700, 0.086
245.800, 0.092
245.900, 0.094
246.000, 0.100
246.100, 0.109
246.200, 0.094
246.300, 0.097
246.400, 0.101
246.500, 0.101
246.600, 0.108
246.700, 0.115
246.800, 0.111
246.900, 0.117
247.000, 0.110
247.100, 0.114
247.200, 0.105
247.300, 0.106
247.400, 0.101
247.500, 0.110
247.600, 0.114
247.700, 0.109
247.800, 0.114
247.900, 0.103
248.000, 0.101
248.100, 0.109
248.200, 0.102
248.300, 0.111
248.400, 0.110
248.500, 0.124
248.600, 0.117
248.700, 0.122
248.800, 0.116
248.900, 0.111
249.000, 0.116
249.100, 0.116
249.200, 0.115
249.300, 0.113
249.400, 0.110
249.500, 0.114
249.600, 0.125
249.700, 0.117
249.800, 0.115
249.900, 0.107
250.000, 0.107
250.100, 0.112
250.200, 0.122
250.300, 0.110
250.400, 0.112
250.500, 0.095
250.600, 0.109
250.700, 0.118
250.800, 0.108
250.900, 0.113
251.000, 0.113
251.100, 0.107
251.200, 0.111
251.300, 0.105
251.400, 0.106
251.500, 0.103
251.600, 0.104
251.700, 0.109
251.800, 0.096
251.900, 0.113
252.000, 0.126
252.100, 0.119
252.200, 0.115
252.300, 0.104
252.400, 0.105
252.500, 0.109
252.600, 0.115
252.700, 0.114
252.800, 0.115
252.900, 0.116
253.000, 0.123
253.100, 0.120
253.200, 0.122
253.300, 0.119
253.400, 0.115
253.500, 0.118
253.600, 0.121
253.700, 0.125
253.800, 0.110
253.900, 0.111
254.000, 0.113
254.100, 0.113
254.200, 0.130
254.300, 0.125
254.400, 0.117
254.500, 0.123
254.600, 0.115
254.700, 0.129
254.800, 0.108
254.900, 0.118
255.000, 0.120
255.100, 0.111
255.200, 0.118
255.300, 0.118
255.400, 0.119
255.500, 0.121
255.600, 0.128
255.700, 0.117
255.800, 0.108
255.900, 0.114
256.000, 0.117
256.100, 0.120
256.200, 0.115
256.300, 0.106
256.400, 0.114
256.500, 0.103
256.600, 0.118
256.700, 0.115
256.800, 0.119
256.900, 0.118
257.000, 0.112
257.100, 0.121
257.200, 0.122
257.300, 0.117
257.400, 0.107
257.500, 0.113
257.600, 0.114
257.700, 0.116
257.800, 0.109
257.900, 0.114
258.000, 0.106
258.100, 0.112
258.200, 0.100
258.300, 0.113
258.400, 0.115
258.500, 0.099
258.600, 0.111
258.700, 0.110
258.800, 0.114
258.900, 0.103
259.000, 0.113
259.100, 0.108
259.200, 0.113
259.300, 0.118
259.400, 0.116
259.500, 0.116
259.600, 0.119
259.700, 0.113
259.800, 0.117
259.900, 0.118
260.000, 0.121
260.100, 0.118
260.200, 0.120
260.300, 0.120
260.400, 0.120
260.500, 0.113
260.600, 0.110
260.700, 0.110
260.800, 0.105
260.900, 0.113
261.000, 0.096
261.100, 0.102
261.200, 0.107
261.300, 0.109
261.400, 0.100
261.500, 0.109
261.600, 0.111
261.700, 0.118
261.800, 0.112
261.900, 0.111
262.000, 0.105
262.100, 0.109
262.200, 0.103
262.300, 0.101
262.400, 0.098
262.500, 0.103
262.600, 0.098
262.700, 0.109
262.800, 0.099
262.900, 0.103
263.000, 0.098
263.100, 0.093
263.200, 0.106
263.300, 0.105
263.400, 0.098
263.500, 0.099
263.600, 0.100
263.700, 0.101
263.800, 0.101
263.900, 0.097
264.000, 0.093
264.100, 0.097
264.200, 0.095
264.300, 0.099
264.400, 0.098
264.500, 0.094
264.600, 0.102
264.700, 0.104
264.800, 0.107
264.900, 0.099
265.000, 0.094
265.100, 0.102
265.200, 0.097
265.300, 0.101
265.400, 0.088
265.500, 0.095
265.600, 0.108
265.700, 0.100
265.800, 0.092
265.900, 0.096
266.000, 0.095
266.100, 0.096
266.200, 0.096
266.300, 0.094
266.400, 0.094
266.500, 0.094
266.600, 0.093
266.700, 0.087
266.800, 0.105
266.900, 0.094
267.000, 0.109
267.100, 0.105
267.200, 0.094
267.300, 0.100
267.400, 0.099
267.500, 0.095
267.600, 0.095
267.700, 0.096
267.800, 0.099
267.900, 0.095
268.000, 0.094
268.100, 0.094
268.200, 0.094
268.300, 0.092
268.400, 0.088
268.500, 0.096
268.600, 0.089
268.700, 0.098
268.800, 0.093
268.900, 0.094
269.000, 0.095
269.100, 0.092
269.200, 0.090
269.300, 0.090
269.400, 0.091
269.500, 0.087
269.600, 0.097
269.700, 0.093
269.800, 0.094
269.900, 0.100
270.000, 0.092
270.100, 0.087
270.200, 0.092
270.300, 0.093
270.400, 0.089
270.500, 0.095
270.600, 0.095
270.700, 0.093
270.800, 0.088
270.900, 0.096
271.000, 0.087
271.100, 0.087
271.200, 0.088
271.300, 0.098
271.400, 0.097
271.500, 0.100
271.600, 0.106
271.700, 0.100
271.800, 0.098
271.900, 0.106
272.000, 0.102
272.100, 0.110
272.200, 0.098
272.300, 0.094
272.400, 0.097
272.500, 0.095
272.600, 0.095
272.700, 0.099
272.800, 0.094
272.900, 0.105
273.000, 0.101
273.100, 0.111
273.200, 0.104
273.300, 0.104
273.400, 0.096
273.500, 0.102
273.600, 0.104
273.700, 0.108
273.800, 0.093
273.900, 0.097
274.000, 0.096
274.100, 0.094
274.200, 0.090
274.300, 0.097
274.400, 0.097
274.500, 0.095
274.600, 0.094
274.700, 0.092
274.800, 0.089
274.900, 0.093
275.000, 0.091
275.100, 0.089
275.200, 0.086
275.300, 0.092
275.400, 0.091
275.500, 0.095
275.600, 0.096
275.700, 0.097
275.800, 0.099
275.900, 0.098
276.000, 0.097
276.100, 0.098
276.200, 0.095
276.300, 0.106
276.400, 0.108
276.500, 0.108
276.600, 0.098
276.700, 0.103
276.800, 0.096
276.900, 0.090
277.000, 0.092
277.100, 0.096
277.200, 0.090
277.300, 0.096
277.400, 0.107
277.500, 0.107
277.600, 0.107
277.700, 0.110
277.800, 0.095
277.900, 0.103
278.000, 0.104
278.100, 0.102
278.200, 0.098
278.300, 0.105
278.400, 0.107
278.500, 0.101
278.600, 0.096
278.700, 0.101
278.800, 0.102
278.900, 0.097
279.000, 0.108
279.100, 0.102
279.200, 0.104
279.300, 0.109
279.400, 0.114
279.500, 0.114
279.600, 0.105
279.700, 0.119
279.800, 0.109
279.900, 0.106
280.000, 0.098
280.100, 0.096
280.200, 0.103
280.300, 0.103
280.400, 0.105
280.500, 0.109
280.600, 0.118
280.700, 0.128
280.800, 0.106
280.900, 0.100
281.000, 0.099
281.100, 0.097
281.200, 0.103
281.300, 0.102
281.400, 0.103
281.500, 0.101
281.600, 0.104
281.700, 0.099
281.800, 0.104
281.900, 0.109
282.000, 0.098
282.100, 0.106
282.200, 0.099
282.300, 0.101
282.400, 0.100
282.500, 0.103
282.600, 0.104
282.700, 0.100
282.800, 0.105
282.900, 0.099
283.000, 0.100
283.100, 0.092
283.200, 0.097
283.300, 0.091
283.400, 0.103
283.500, 0.099
283.600, 0.109
283.700, 0.101
283.800, 0.093
283.900, 0.091
284.000, 0.102
284.100, 0.096
284.200, 0.095
284.300, 0.100
284.400, 0.099
284.500, 0.092
284.600, 0.098
284.700, 0.096
284.800, 0.108
284.900, 0.097
285.000, 0.097
285.100, 0.096
285.200, 0.099
285.300, 0.098
285.400, 0.096
285.500, 0.093
285.600, 0.094
285.700, 0.090
285.800, 0.089
285.900, 0.092
286.000, 0.094
286.100, 0.089
286.200, 0.093
286.300, 0.091
286.400, 0.098
286.500, 0.094
286.600, 0.094
286.700, 0.097
286.800, 0.098
286.900, 0.091
287.000, 0.101
287.100, 0.086
287.200, 0.097
287.300, 0.092
287.400, 0.104
287.500, 0.098
287.600, 0.095
287.700, 0.097
287.800, 0.096
287.900, 0.098
288.000, 0.090
288.100, 0.090
288.200, 0.092
288.300, 0.099
288.400, 0.108
288.500, 0.100
288.600, 0.098
288.700, 0.097
288.800, 0.089
288.900, 0.095
289.000, 0.087
289.100, 0.092
289.200, 0.087
289.300, 0.090
289.400, 0.084
289.500, 0.094
289.600, 0.091
289.700, 0.094
289.800, 0.106
289.900, 0.095
290.000, 0.094
290.100, 0.096
290.200, 0.087
290.300, 0.091
290.400, 0.088
290.500, 0.091
290.600, 0.092
290.700, 0.095
290.800, 0.102
290.900, 0.101
291.000, 0.106
291.100, 0.099
291.200, 0.095
291.300, 0.105
291.400, 0.104
291.500, 0.114
291.600, 0.101
291.700, 0.099
291.800, 0.100
291.900, 0.093
292.000, 0.099
292.100, 0.099
292.200, 0.098
292.300, 0.098
292.400, 0.099
292.500, 0.103
292.600, 0.102
292.700, 0.097
292.800, 0.101
292.900, 0.100
293.000, 0.109
293.100, 0.101
293.200, 0.088
293.300, 0.100
293.400, 0.091
293.500, 0.103
293.600, 0.101
293.700, 0.100
293.800, 0.102
293.900, 0.093
294.000, 0.091
294.100, 0.097
294.200, 0.097
294.300, 0.093
294.400, 0.100
294.500, 0.098
294.600, 0.102
294.700, 0.103
294.800, 0.099
294.900, 0.101
295.000, 0.110
295.100, 0.102
295.200, 0.102
295.300, 0.107
295.400, 0.103
295.500, 0.102
295.600, 0.103
295.700, 0.107
295.800, 0.107
295.900, 0.095
296.000, 0.104
296.100, 0.098
296.200, 0.099
296.300, 0.102
296.400, 0.103
296.500, 0.105
296.600, 0.099
296.700, 0.112
296.800, 0.108
296.900, 0.106
297.000, 0.107
297.100, 0.105
297.200, 0.095
297.300, 0.110
297.400, 0.107
297.500, 0.106
297.600, 0.110
297.700, 0.118
297.800, 0.104
297.900, 0.108
298.000, 0.107
298.100, 0.103
298.200, 0.103
298.300, 0.097
298.400, 0.101
298.500, 0.114
298.600, 0.109
298.700, 0.113
298.800, 0.106
298.900, 0.104
299.000, 0.109
299.100, 0.102
299.200, 0.101
299.300, 0.111
299.400, 0.096
299.500, 0.094
299.600, 0.101
299.700, 0.103
299.800, 0.100
299.900, 0.105
300.000, 0.101
300.100, 0.106
300.200, 0.107
300.300, 0.117
300.400, 0.106
300.500, 0.103
300.600, 0.114
300.700, 0.105
300.800, 0.097
300.900, 0.104
301.000, 0.100
301.100, 0.099
301.200, 0.107
301.300, 0.089
301.400, 0.096
301.500, 0.091
301.600, 0.095
301.700, 0.089
301.800, 0.094
301.900, 0.102
302.000, 0.100
302.100, 0.098
302.200, 0.097
302.300, 0.101
302.400, 0.099
302.500, 0.099
302.600, 0.091
302.700, 0.097
302.800, 0.104
302.900, 0.105
303.000, 0.102
303.100, 0.097
303.200, 0.098
303.300, 0.098
303.400, 0.103
303.500, 0.102
303.600, 0.098
303.700, 0.101
303.800, 0.100
303.900, 0.111
304.000, 0.112
304.100, 0.109
304.200, 0.111
304.300, 0.112
304.400, 0.106
304.500, 0.110
304.600, 0.105
304.700, 0.115
304.800, 0.122
304.900, 0.113
305.000, 0.109
305.100, 0.108
305.200, 0.106
305.300, 0.096
305.400, 0.094
305.500, 0.103
305.600, 0.102
305.700, 0.101
305.800, 0.098
305.900, 0.106
306.000, 0.102
306.100, 0.105
306.200, 0.094
306.300, 0.102
306.400, 0.097
306.500, 0.103
306.600, 0.101
306.700, 0.101
306.800, 0.103
306.900, 0.097
307.000, 0.111
307.100, 0.106
307.200, 0.109
307.300, 0.106
307.400, 0.111
307.500, 0.114
307.600, 0.111
307.700, 0.103
307.800, 0.111
307.900, 0.113
308.000, 0.115
308.100, 0.100
308.200, 0.112
308.300, 0.104
308.400, 0.098
308.500, 0.099
308.600, 0.095
308.700, 0.098
308.800, 0.097
308.900, 0.099
309.000, 0.099
309.100, 0.094
309.200, 0.101
309.300, 0.110
309.400, 0.110
309.500, 0.100
309.600, 0.100
309.700, 0.099
309.800, 0.106
309.900, 0.109
310.000, 0.111
310.100, 0.100
310.200, 0.099
310.300, 0.104
310.400, 0.104
310.500, 0.109
310.600, 0.104
310.700, 0.111
310.800, 0.102
310.900, 0.094
311.000, 0.102
311.100, 0.098
311.200, 0.098
311.300, 0.097
311.400, 0.109
311.500, 0.098
311.600, 0.102
311.700, 0.103
311.800, 0.103
311.900, 0.097
312.000, 0.097
312.100, 0.108
312.200, 0.102
312.300, 0.110
312.400, 0.093
312.500, 0.091
312.600, 0.112
312.700, 0.105
312.800, 0.102
312.900, 0.106
313.000, 0.105
313.100, 0.108
313.200, 0.103
313.300, 0.110
313.400, 0.105
313.500, 0.104
313.600, 0.111
313.700, 0.111
313.800, 0.104
313.900, 0.102
314.000, 0.106
314.100, 0.107
314.200, 0.105
314.300, 0.106
314.400, 0.112
314.500, 0.113
314.600, 0.106
314.700, 0.102
314.800, 0.093
314.900, 0.092
315.000, 0.106
315.100, 0.110
315.200, 0.113
315.300, 0.111
315.400, 0.101
315.500, 0.118
315.600, 0.112
315.700, 0.109
315.800, 0.103
315.900, 0.105
316.000, 0.099
316.100, 0.107
316.200, 0.099
316.300, 0.108
316.400, 0.105
316.500, 0.108
316.600, 0.119
316.700, 0.109
316.800, 0.106
316.900, 0.097
317.000, 0.105
317.100, 0.101
317.200, 0.099
317.300, 0.110
317.400, 0.110
317.500, 0.101
317.600, 0.103
317.700, 0.102
317.800, 0.107
317.900, 0.106
318.000, 0.112
318.100, 0.101
318.200, 0.097
318.300, 0.106
318.400, 0.106
318.500, 0.114
318.600, 0.106
318.700, 0.102
318.800, 0.111
318.900, 0.109
319.000, 0.113
319.100, 0.122
319.200, 0.114
319.300, 0.110
319.400, 0.113
319.500, 0.113
319.600, 0.114
319.700, 0.108
319.800, 0.115
319.900, 0.114
320.000, 0.109
320.100, 0.107
320.200, 0.107
320.300, 0.102
320.400, 0.102
320.500, 0.102
320.600, 0.104
320.700, 0.110
320.800, 0.114
320.900, 0.102
321.000, 0.106
321.100, 0.110
321.200, 0.110
321.300, 0.109
321.400, 0.106
321.500, 0.109
321.600, 0.113
321.700, 0.112
321.800, 0.115
321.900, 0.121
322.000, 0.116
322.100, 0.121
322.200, 0.123
322.300, 0.113
322.400, 0.110
322.500, 0.109
322.600, 0.116
322.700, 0.110
322.800, 0.121
322.900, 0.116
323.000, 0.126
323.100, 0.122
323.200, 0.117
323.300, 0.109
323.400, 0.120
323.500, 0.119
323.600, 0.115
323.700, 0.114
323.800, 0.117
323.900, 0.120
324.000, 0.125
324.100, 0.120
324.200, 0.121
324.300, 0.125
324.400, 0.113
324.500, 0.118
324.600, 0.113
324.700, 0.109
324.800, 0.119
324.900, 0.109
325.000, 0.109
325.100, 0.111
325.200, 0.115
325.300, 0.129
325.400, 0.114
325.500, 0.117
325.600, 0.110
325.700, 0.117
325.800, 0.111
325.900, 0.120
326.000, 0.113
326.100, 0.107
326.200, 0.118
326.300, 0.108
326.400, 0.114
326.500, 0.102
326.600, 0.112
326.700, 0.120
326.800, 0.112
326.900, 0.117
327.000, 0.120
327.100, 0.115
327.200, 0.106
327.300, 0.114
327.400, 0.116
327.500, 0.115
327.600, 0.116
327.700, 0.111
327.800, 0.111
327.900, 0.104
328.000, 0.118
328.100, 0.112
328.200, 0.112
328.300, 0.111
328.400, 0.113
328.500, 0.116
328.600, 0.121
328.700, 0.123
328.800, 0.127
328.900, 0.124
329.000, 0.129
329.100, 0.120
329.200, 0.123
329.300, 0.124
329.400, 0.123
329.500, 0.115
329.600, 0.120
329.700, 0.119
329.800, 0.120
329.900, 0.123
330.000, 0.124
330.100, 0.121
330.200, 0.124
330.300, 0.118
330.400, 0.131
330.500, 0.115
330.600, 0.110
330.700, 0.116
330.800, 0.122
330.900, 0.112
331.000, 0.117
331.100, 0.112
331.200, 0.123
331.300, 0.116
331.400, 0.114
331.500, 0.110
331.600, 0.120
331.700, 0.108
331.800, 0.119
331.900, 0.130
332.000, 0.118
332.100, 0.112
332.200, 0.119
332.300, 0.119
332.400, 0.121
332.500, 0.119
332.600, 0.121
332.700, 0.110
332.800, 0.113
332.900, 0.105
333.000, 0.126
333.100, 0.108
333.200, 0.107
333.300, 0.125
333.400, 0.120
333.500, 0.116
333.600, 0.115
333.700, 0.121
333.800, 0.128
333.900, 0.119
334.000, 0.114
334.100, 0.118
334.200, 0.120
334.300, 0.118
334.400, 0.115
334.500, 0.115
334.600, 0.110
334.700, 0.112
334.800, 0.120
334.900, 0.114
335.000, 0.107
335.100, 0.118
335.200, 0.113
335.300, 0.115
335.400, 0.112
335.500, 0.111
335.600, 0.116
335.700, 0.107
335.800, 0.110
335.900, 0.112
336.000, 0.111
336.100, 0.106
336.200, 0.108
336.300, 0.116
336.400, 0.127
336.500, 0.118
336.600, 0.114
336.700, 0.115
336.800, 0.111
336.900, 0.115
337.000, 0.111
337.100, 0.112
337.200, 0.111
337.300, 0.112
337.400, 0.119
337.500, 0.106
337.600, 0.111
337.700, 0.115
337.800, 0.106
337.900, 0.112
338.000, 0.110
338.100, 0.111
338.200, 0.106
338.300, 0.111
338.400, 0.107
338.500, 0.120
338.600, 0.109
338.700, 0.114
338.800, 0.112
338.900, 0.108
339.000, 0.113
339.100, 0.100
339.200, 0.107
339.300, 0.111
339.400, 0.115
339.500, 0.111
339.600, 0.110
339.700, 0.108
339.800, 0.111
339.900, 0.115
340.000, 0.115
340.100, 0.108
340.200, 0.105
340.300, 0.109
340.400, 0.104
340.500, 0.112
340.600, 0.110
340.700, 0.106
340.800, 0.107
340.900, 0.114
341.000, 0.105
341.100, 0.105
341.200, 0.108
341.300, 0.112
341.400, 0.113
341.500, 0.118
341.600, 0.109
341.700, 0.112
341.800, 0.107
341.900, 0.109
342.000, 0.105
342.100, 0.112
342.200, 0.113
342.300, 0.111
342.400, 0.113
342.500, 0.101
342.600, 0.104
342.700, 0.106
342.800, 0.106
342.900, 0.104
343.000, 0.107
343.100, 0.109
343.200, 0.119
343.300, 0.106
343.400, 0.094
343.500, 0.105
343.600, 0.113
343.700, 0.111
343.800, 0.105
343.900, 0.103
344.000, 0.108
344.100, 0.103
344.200, 0.103
344.300, 0.107
344.400, 0.103
344.500, 0.103
344.600, 0.104
344.700, 0.114
344.800, 0.110
344.900, 0.106
345.000, 0.100
345.100, 0.104
345.200, 0.110
345.300, 0.104
345.400, 0.097
345.500, 0.100
345.600, 0.098
345.700, 0.101
345.800, 0.101
345.900, 0.112
346.000, 0.107
346.100, 0.106
346.200, 0.110
346.300, 0.107
346.400, 0.107
346.500, 0.099
346.600, 0.109
346.700, 0.109
346.800, 0.108
346.900, 0.107
347.000, 0.109
347.100, 0.107
347.200, 0.110
347.300, 0.107
347.400, 0.117
347.500, 0.110
347.600, 0.112
347.700, 0.108
347.800, 0.108
347.900, 0.118
348.000, 0.106
348.100, 0.099
348.200, 0.108
348.300, 0.112
348.400, 0.108
348.500, 0.101
348.600, 0.101
348.700, 0.117
348.800, 0.105
348.900, 0.109
349.000, 0.109
349.100, 0.121
349.200, 0.125
349.300, 0.121
349.400, 0.104
349.500, 0.108
349.600, 0.108
349.700, 0.111
349.800, 0.106
349.900, 0.105
350.000, 0.102
350.100, 0.106
350.200, 0.108
350.300, 0.104
350.400, 0.109
350.500, 0.111
350.600, 0.103
350.700, 0.099
350.800, 0.106
350.900, 0.103
351.000, 0.110
351.100, 0.106
351.200, 0.106
351.300, 0.103
351.400, 0.113
351.500, 0.115
351.600, 0.115
351.700, 0.102
351.800, 0.107
351.900, 0.105
352.000, 0.106
352.100, 0.109
352.200, 0.111
352.300, 0.106
352.400, 0.104
352.500, 0.116
352.600, 0.098
352.700, 0.104
352.800, 0.111
352.900, 0.105
353.000, 0.116
353.100, 0.112
353.200, 0.121
353.300, 0.115
353.400, 0.121
353.500, 0.122
353.600, 0.105
353.700, 0.112
353.800, 0.105
353.900, 0.106
354.000, 0.107
354.100, 0.112
354.200, 0.111
354.300, 0.110
354.400, 0.107
354.500, 0.104
354.600, 0.110
354.700, 0.106
354.800, 0.112
354.900, 0.100
355.000, 0.101
355.100, 0.103
355.200, 0.101
355.300, 0.101
355.400, 0.101
355.500, 0.104
355.600, 0.107
355.700, 0.105
355.800, 0.102
355.900, 0.106
356.000, 0.104
356.100, 0.106
356.200, 0.097
356.300, 0.105
356.400, 0.098
356.500, 0.101
356.600, 0.098
356.700, 0.111
356.800, 0.112
356.900, 0.102
357.000, 0.094
357.100, 0.108
357.200, 0.102
357.300, 0.123
357.400, 0.111
357.500, 0.107
357.600, 0.101
357.700, 0.108
357.800, 0.099
357.900, 0.097
358.000, 0.102
358.100, 0.104
358.200, 0.103
358.300, 0.093
358.400, 0.095
358.500, 0.103
358.600, 0.105
358.700, 0.109
358.800, 0.098
358.900, 0.104
359.000, 0.110
359.100, 0.108
359.200, 0.109
359.300, 0.103
359.400, 0.117
359.500, 0.101
359.600, 0.100
359.700, 0.108
359.800, 0.107
359.900, 0.106
360.000, 0.111
360.100, 0.101
360.200, 0.101
360.300, 0.106
360.400, 0.108
360.500, 0.102
360.600, 0.093
360.700, 0.112
360.800, 0.110
360.900, 0.108
361.000, 0.106
361.100, 0.105
361.200, 0.105
361.300, 0.098
361.400, 0.102
361.500, 0.099
361.600, 0.101
361.700, 0.099
361.800, 0.092
361.900, 0.101
362.000, 0.110
362.100, 0.097
362.200, 0.109
362.300, 0.099
362.400, 0.096
362.500, 0.104
362.600, 0.099
362.700, 0.113
362.800, 0.109
362.900, 0.105
363.000, 0.108
363.100, 0.105
363.200, 0.106
363.300, 0.112
363.400, 0.105
363.500, 0.098
363.600, 0.101
363.700, 0.112
363.800, 0.099
363.900, 0.092
364.000, 0.109
364.100, 0.109
364.200, 0.106
364.300, 0.114
364.400, 0.108
364.500, 0.103
364.600, 0.108
364.700, 0.104
364.800, 0.108
364.900, 0.106
365.000, 0.105
365.100, 0.109
365.200, 0.114
365.300, 0.106
365.400, 0.109
365.500, 0.098
365.600, 0.104
365.700, 0.109
365.800, 0.107
365.900, 0.114
366.000, 0.103
366.100, 0.109
366.200, 0.104
366.300, 0.102
366.400, 0.105
366.500, 0.107
366.600, 0.101
366.700, 0.100
366.800, 0.101
366.900, 0.108
367.000, 0.097
367.100, 0.103
367.200, 0.104
367.300, 0.106
367.400, 0.101
367.500, 0.105
367.600, 0.103
367.700, 0.104
367.800, 0.095
367.900, 0.096
368.000, 0.094
368.100, 0.097
368.200, 0.103
368.300, 0.101
368.400, 0.105
368.500, 0.107
368.600, 0.093
368.700, 0.105
368.800, 0.101
368.900, 0.105
369.000, 0.100
369.100, 0.089
369.200, 0.106
369.300, 0.093
369.400, 0.094
369.500, 0.094
369.600, 0.097
369.700, 0.095
369.800, 0.092
369.900, 0.094
370.000, 0.089
370.100, 0.098
370.200, 0.098
370.300, 0.086
370.400, 0.099
370.500, 0.099
370.600, 0.095
370.700, 0.096
370.800, 0.086
370.900, 0.095
371.000, 0.096
371.100, 0.094
371.200, 0.090
371.300, 0.091
371.400, 0.099
371.500, 0.111
371.600, 0.101
371.700, 0.096
371.800, 0.088
371.900, 0.102
372.000, 0.098
372.100, 0.097
372.200, 0.101
372.300, 0.097
372.400, 0.098
372.500, 0.096
372.600, 0.099
372.700, 0.102
372.800, 0.101
372.900, 0.102
373.000, 0.096
373.100, 0.107
373.200, 0.108
373.300, 0.112
373.400, 0.110
373.500, 0.107
373.600, 0.104
373.700, 0.107
373.800, 0.110
373.900, 0.109
374.000, 0.107
374.100, 0.094
374.200, 0.104
374.300, 0.106
374.400, 0.103
374.500, 0.102
374.600, 0.098
374.700, 0.091
374.800, 0.105
374.900, 0.100
375.000, 0.110
375.100, 0.111
375.200, 0.099
375.300, 0.097
375.400, 0.094
375.500, 0.095
375.600, 0.099
375.700, 0.114
375.800, 0.098
375.900, 0.101
376.000, 0.094
376.100, 0.098
376.200, 0.099
376.300, 0.108
376.400, 0.107
376.500, 0.110
376.600, 0.106
376.700, 0.107
376.800, 0.112
376.900, 0.108
377.000, 0.108
377.100, 0.104
377.200, 0.106
377.300, 0.113
377.400, 0.097
377.500, 0.109
377.600, 0.107
377.700, 0.110
377.800, 0.107
377.900, 0.109
378.000, 0.109
378.100, 0.099
378.200, 0.104
378.300, 0.105
378.400, 0.118
378.500, 0.113
378.600, 0.107
378.700, 0.101
378.800, 0.099
378.900, 0.112
379.000, 0.096
379.100, 0.099
379.200, 0.095
379.300, 0.099
379.400, 0.093
379.500, 0.106
379.600, 0.106
379.700, 0.104
379.800, 0.107
379.900, 0.104
380.000, 0.113
380.100, 0.107
380.200, 0.106
380.300, 0.110
380.400, 0.113
380.500, 0.113
380.600, 0.101
380.700, 0.100
380.800, 0.108
380.900, 0.112
381.000, 0.100
381.100, 0.110
381.200, 0.112
381.300, 0.114
381.400, 0.115
381.500, 0.105
381.600, 0.107
381.700, 0.110
381.800, 0.112
381.900, 0.111
382.000, 0.115
382.100, 0.116
382.200, 0.115
382.300, 0.107
382.400, 0.103
382.500, 0.106
382.600, 0.104
382.700, 0.109
382.800, 0.113
382.900, 0.115
383.000, 0.110
383.100, 0.105
383.200, 0.111
383.300, 0.107
383.400, 0.109
383.500, 0.114
383.600, 0.108
383.700, 0.105
383.800, 0.113
383.900, 0.104
384.000, 0.106
384.100, 0.101
384.200, 0.106
384.300, 0.104
384.400, 0.115
384.500, 0.104
384.600, 0.115
384.700, 0.119
384.800, 0.107
384.900, 0.117
385.000, 0.103
385.100, 0.110
385.200, 0.101
385.300, 0.113
385.400, 0.106
385.500, 0.108
385.600, 0.103
385.700, 0.107
385.800, 0.099
385.900, 0.108
386.000, 0.111
386.100, 0.121
386.200, 0.110
386.300, 0.105
386.400, 0.097
386.500, 0.102
386.600, 0.115
386.700, 0.116
386.800, 0.117
386.900, 0.109
387.000, 0.110
387.100, 0.107
387.200, 0.107
387.300, 0.111
387.400, 0.103
387.500, 0.104
387.600, 0.107
387.700, 0.100
387.800, 0.104
387.900, 0.109
388.000, 0.107
388.100, 0.109
388.200, 0.107
388.300, 0.106
388.400, 0.098
388.500, 0.104
388.600, 0.111
388.700, 0.105
388.800, 0.108
388.900, 0.104
389.000, 0.104
389.100, 0.102
389.200, 0.109
389.300, 0.111
389.400, 0.111
389.500, 0.119
389.600, 0.117
389.700, 0.111
389.800, 0.104
389.900, 0.106
390.000, 0.103
390.100, 0.100
390.200, 0.103
390.300, 0.104
390.400, 0.108
390.500, 0.109
390.600, 0.104
390.700, 0.102
390.800, 0.098
390.900, 0.104
391.000, 0.105
391.100, 0.110
391.200, 0.115
391.300, 0.116
391.400, 0.117
391.500, 0.114
391.600, 0.117
391.700, 0.113
391.800, 0.113
391.900, 0.106
392.000, 0.108
392.100, 0.103
392.200, 0.105
392.300, 0.103
392.400, 0.111
392.500, 0.105
392.600, 0.107
392.700, 0.105
392.800, 0.106
392.900, 0.101
393.000, 0.110
393.100, 0.106
393.200, 0.114
393.300, 0.111
393.400, 0.116
393.500, 0.105
393.600, 0.110
393.700, 0.115
393.800, 0.099
393.900, 0.110
394.000, 0.108
394.100, 0.110
394.200, 0.109
394.300, 0.112
394.400, 0.114
394.500, 0.115
394.600, 0.119
394.700, 0.106
394.800, 0.103
394.900, 0.108
395.000, 0.102
395.100, 0.114
395.200, 0.107
395.300, 0.106
395.400, 0.107
395.500, 0.110
395.600, 0.113
395.700, 0.110
395.800, 0.109
395.900, 0.110
396.000, 0.119
396.100, 0.104
396.200, 0.110
396.300, 0.111
396.400, 0.115
396.500, 0.111
396.600, 0.107
396.700, 0.106
396.800, 0.110
396.900, 0.115
397.000, 0.121
397.100, 0.112
397.200, 0.104
397.300, 0.113
397.400, 0.111
397.500, 0.109
397.600, 0.119
397.700, 0.119
397.800, 0.105
397.900, 0.125
398.000, 0.113
398.100, 0.128
398.200, 0.114
398.300, 0.117
398.400, 0.113
398.500, 0.115
398.600, 0.118
398.700, 0.116
398.800, 0.115
398.900, 0.113
399.000, 0.115
399.100, 0.111
399.200, 0.115
399.300, 0.114
399.400, 0.117
399.500, 0.111
399.600, 0.112
399.700, 0.122
399.800, 0.112
399.900, 0.111
400.000, 0.119
400.100, 0.113
400.200, 0.110
400.300, 0.113
400.400, 0.112
400.500, 0.118
400.600, 0.104
400.700, 0.116
400.800, 0.116
400.900, 0.119
401.000, 0.119
401.100, 0.113
401.200, 0.101
401.300, 0.111
401.400, 0.125
401.500, 0.123
401.600, 0.120
401.700, 0.115
401.800, 0.130
401.900, 0.125
402.000, 0.113
402.100, 0.120
402.200, 0.113
402.300, 0.114
402.400, 0.126
402.500, 0.137
402.600, 0.114
402.700, 0.119
402.800, 0.127
402.900, 0.133
403.000, 0.123
403.100, 0.125
403.200, 0.133
403.300, 0.136
403.400, 0.123
403.500, 0.122
403.600, 0.121
403.700, 0.126
403.800, 0.123
403.900, 0.121
404.000, 0.125
404.100, 0.128
404.200, 0.126
404.300, 0.138
404.400, 0.116
404.500, 0.122
404.600, 0.133
404.700, 0.128
404.800, 0.119
404.900, 0.120
405.000, 0.125
405.100, 0.120
405.200, 0.129
405.300, 0.124
405.400, 0.118
405.500, 0.118
405.600, 0.121
405.700, 0.120
405.800, 0.117
405.900, 0.115
406.000, 0.123
406.100, 0.104
406.200, 0.110
406.300, 0.118
406.400, 0.119
406.500, 0.125
406.600, 0.114
406.700, 0.104
406.800, 0.119
406.900, 0.116
407.000, 0.121
407.100, 0.122
407.200, 0.105
407.300, 0.119
407.400, 0.121
407.500, 0.119
407.600, 0.109
407.700, 0.129
407.800, 0.115
407.900, 0.119
408.000, 0.123
408.100, 0.115
408.200, 0.103
408.300, 0.128
408.400, 0.121
408.500, 0.123
408.600, 0.127
408.700, 0.120
408.800, 0.124
408.900, 0.121
409.000, 0.132
409.100, 0.132
409.200, 0.126
409.300, 0.115
409.400, 0.120
409.500, 0.131
409.600, 0.115
409.700, 0.120
409.800, 0.117
409.900, 0.120
410.000, 0.111
410.100, 0.121
410.200, 0.121
410.300, 0.127
410.400, 0.117
410.500, 0.108
410.600, 0.121
410.700, 0.120
410.800, 0.117
410.900, 0.119
411.000, 0.110
411.100, 0.125
411.200, 0.131
411.300, 0.117
411.400, 0.123
411.500, 0.116
411.600, 0.122
411.700, 0.127
411.800, 0.121
411.900, 0.122
412.000, 0.122
412.100, 0.116
412.200, 0.114
412.300, 0.123
412.400, 0.119
412.500, 0.128
412.600, 0.112
412.700, 0.117
412.800, 0.115
412.900, 0.115
413.000, 0.114
413.100, 0.115
413.200, 0.109
413.300, 0.130
413.400, 0.124
413.500, 0.118
413.600, 0.117
413.700, 0.123
413.800, 0.118
413.900, 0.117
414.000, 0.117
414.100, 0.114
414.200, 0.118
414.300, 0.123
414.400, 0.121
414.500, 0.118
414.600, 0.104
414.700, 0.119
414.800, 0.110
414.900, 0.113
415.000, 0.113
415.100, 0.113
415.200, 0.104
415.300, 0.110
415.400, 0.105
415.500, 0.118
415.600, 0.111
415.700, 0.105
415.800, 0.107
415.900, 0.099
416.000, 0.097
416.100, 0.107
416.200, 0.108
416.300, 0.109
416.400, 0.106
416.500, 0.107
416.600, 0.106
416.700, 0.111
416.800, 0.109
416.900, 0.105
417.000, 0.110
417.100, 0.104
417.200, 0.107
417.300, 0.097
417.400, 0.102
417.500, 0.110
417.600, 0.114
417.700, 0.107
417.800, 0.112
417.900, 0.114
418.000, 0.118
418.100, 0.119
418.200, 0.111
418.300, 0.105
418.400, 0.108
418.500, 0.120
418.600, 0.116
418.700, 0.113
418.800, 0.108
418.900, 0.113
419.000, 0.110
419.100, 0.107
419.200, 0.112
419.300, 0.107
419.400, 0.111
419.500, 0.101
419.600, 0.101
419.700, 0.108
419.800, 0.112
419.900, 0.108
420.000, 0.097
420.100, 0.097
420.200, 0.107
420.300, 0.101
420.400, 0.117
420.500, 0.106
420.600, 0.107
420.700, 0.105
420.800, 0.108
420.900, 0.095
421.000, 0.112
421.100, 0.095
421.200, 0.107
421.300, 0.104
421.400, 0.106
421.500, 0.104
421.600, 0.100
421.700, 0.108
421.800, 0.100
421.900, 0.103
422.000, 0.108
422.100, 0.105
422.200, 0.097
422.300, 0.089
422.400, 0.105
422.500, 0.099
422.600, 0.100
422.700, 0.100
422.800, 0.099
422.900, 0.105
423.000, 0.098
423.100, 0.096
423.200, 0.098
423.300, 0.102
423.400, 0.100
423.500, 0.106
423.600, 0.111
423.700, 0.108
423.800, 0.105
423.900, 0.116
424.000, 0.111
424.100, 0.109
424.200, 0.108
424.300, 0.110
424.400, 0.114
424.500, 0.117
424.600, 0.119
424.700, 0.108
424.800, 0.111
424.900, 0.115
425.000, 0.111
425.100, 0.107
425.200, 0.115
425.300, 0.104
425.400, 0.113
425.500, 0.103
425.600, 0.115
425.700, 0.107
425.800, 0.099
425.900, 0.108
426.000, 0.109
426.100, 0.107
426.200, 0.118
426.300, 0.108
426.400, 0.106
426.500, 0.106
426.600, 0.113
426.700, 0.114
426.800, 0.108
426.900, 0.117
427.000, 0.116
427.100, 0.108
427.200, 0.111
427.300, 0.111
427.400, 0.106
427.500, 0.106
427.600, 0.103
427.700, 0.109
427.800, 0.110
427.900, 0.108
428.000, 0.113
428.100, 0.104
428.200, 0.114
428.300, 0.106
428.400, 0.102
428.500, 0.106
428.600, 0.108
428.700, 0.121
428.800, 0.120
428.900, 0.118
429.000, 0.122
429.100, 0.115
429.200, 0.103
429.300, 0.115
429.400, 0.126
429.500, 0.110
429.600, 0.114
429.700, 0.117
429.800, 0.119
429.900, 0.112
430.000, 0.122
430.100, 0.111
430.200, 0.123
430.300, 0.120
430.400, 0.113
430.500, 0.105
430.600, 0.112
430.700, 0.126
430.800, 0.112
430.900, 0.119
431.000, 0.117
431.100, 0.105
431.200, 0.117
431.300, 0.112
431.400, 0.112
431.500, 0.108
431.600, 0.114
431.700, 0.114
431.800, 0.106
431.900, 0.118
432.000, 0.110
432.100, 0.109
432.200, 0.099
432.300, 0.112
432.400, 0.111
432.500, 0.110
432.600, 0.111
432.700, 0.111
432.800, 0.116
432.900, 0.102
433.000, 0.102
433.100, 0.099
433.200, 0.096
433.300, 0.103
433.400, 0.111
433.500, 0.109
433.600, 0.103
433.700, 0.103
433.800, 0.101
433.900, 0.100
434.000, 0.103
434.100, 0.115
434.200, 0.101
434.300, 0.109
434.400, 0.098
434.500, 0.100
434.600, 0.095
434.700, 0.099
434.800, 0.100
434.900, 0.104
435.000, 0.106
435.100, 0.104
435.200, 0.099
435.300, 0.104
435.400, 0.104
435.500, 0.100
435.600, 0.106
435.700, 0.098
435.800, 0.105
435.900, 0.101
436.000, 0.113
436.100, 0.108
436.200, 0.106
436.300, 0.112
436.400, 0.104
436.500, 0.105
436.600, 0.111
436.700, 0.106
436.800, 0.105
436.900, 0.101
437.000, 0.104
437.100, 0.107
437.200, 0.097
437.300, 0.103
437.400, 0.105
437.500, 0.107
437.600, 0.092
437.700, 0.113
437.800, 0.114
437.900, 0.124
438.000, 0.112
438.100, 0.123
438.200, 0.117
438.300, 0.111
438.400, 0.107
438.500, 0.114
438.600, 0.108
438.700, 0.105
438.800, 0.116
438.900, 0.118
439.000, 0.118
439.100, 0.115
439.200, 0.109
439.300, 0.111
439.400, 0.119
439.500, 0.109
439.600, 0.110
439.700, 0.108
439.800, 0.115
439.900, 0.115
440.000, 0.115
440.100, 0.110
440.200, 0.116
440.300, 0.118
440.400, 0.102
440.500, 0.112
440.600, 0.111
440.700, 0.123
440.800, 0.112
440.900, 0.114
441.000, 0.110
441.100, 0.109
441.200, 0.112
441.300, 0.106
441.400, 0.107
441.500, 0.112
441.600, 0.115
441.700, 0.110
441.800, 0.110
441.900, 0.117
442.000, 0.117
442.100, 0.109
442.200, 0.121
442.300, 0.117
442.400, 0.109
442.500, 0.102
442.600, 0.112
442.700, 0.110
442.800, 0.112
442.900, 0.109
443.000, 0.100
443.100, 0.101
443.200, 0.105
443.300, 0.111
443.400, 0.104
443.500, 0.108
443.600, 0.099
443.700, 0.101
443.800, 0.103
443.900, 0.109
444.000, 0.101
444.100, 0.103
444.200, 0.111
444.300, 0.119
444.400, 0.105
444.500, 0.108
444.600, 0.108
444.700, 0.102
444.800, 0.108
444.900, 0.102
445.000, 0.095
445.100, 0.104
445.200, 0.098
445.300, 0.106
445.400, 0.098
445.500, 0.101
445.600, 0.109
445.700, 0.115
445.800, 0.102
445.900, 0.096
446.000, 0.101
446.100, 0.105
446.200, 0.106
446.300, 0.115
446.400, 0.115
446.500, 0.115
446.600, 0.122
446.700, 0.106
446.800, 0.105
446.900, 0.103
447.000, 0.096
447.100, 0.099
447.200, 0.101
447.300, 0.100
447.400, 0.100
447.500, 0.106
447.600, 0.108
447.700, 0.101
447.800, 0.109
447.900, 0.103
448.000, 0.100
448.100, 0.096
448.200, 0.101
448.300, 0.110
448.400, 0.125
448.500, 0.113
448.600, 0.123
448.700, 0.117
448.800, 0.122
448.900, 0.112
449.000, 0.105
449.100, 0.106
449.200, 0.100
449.300, 0.099
449.400, 0.103
449.500, 0.097
449.600, 0.102
449.700, 0.111
449.800, 0.105
449.900, 0.107
450.000, 0.107
450.100, 0.107
450.200, 0.106
450.300, 0.113
450.400, 0.109
450.500, 0.101
450.600, 0.106
450.700, 0.117
450.800, 0.110
450.900, 0.113
451.000, 0.107
451.100, 0.104
451.200, 0.121
451.300, 0.110
451.400, 0.123
451.500, 0.121
451.600, 0.115
451.700, 0.120
451.800, 0.125
451.900, 0.120
452.000, 0.111
452.100, 0.109
452.200, 0.113
452.300, 0.113
452.400, 0.110
452.500, 0.103
452.600, 0.108
452.700, 0.106
452.800, 0.105
452.900, 0.106
453.000, 0.109
453.100, 0.105
453.200, 0.112
453.300, 0.112
453.400, 0.105
453.500, 0.103
453.600, 0.113
453.700, 0.116
453.800, 0.103
453.900, 0.104
454.000, 0.106
454.100, 0.105
454.200, 0.108
454.300, 0.091
454.400, 0.126
454.500, 0.108
454.600, 0.126
454.700, 0.093
454.800, 0.096
454.900, 0.098
455.000, 0.097
455.100, 0.099
455.200, 0.094
455.300, 0.097
455.400, 0.102
455.500, 0.102
455.600, 0.101
455.700, 0.097
455.800, 0.098
455.900, 0.105
456.000, 0.104
456.100, 0.102
456.200, 0.108
456.300, 0.106
456.400, 0.108
456.500, 0.108
456.600, 0.095
456.700, 0.106
456.800, 0.104
456.900, 0.100
457.000, 0.099
457.100, 0.104
457.200, 0.098
457.300, 0.098
457.400, 0.096
457.500, 0.101
457.600, 0.106
457.700, 0.092
457.800, 0.099
457.900, 0.100
458.000, 0.101
458.100, 0.084
458.200, 0.090
458.300, 0.098
458.400, 0.087
458.500, 0.089
458.600, 0.086
458.700, 0.097
458.800, 0.090
458.900, 0.093
459.000, 0.105
459.100, 0.104
459.200, 0.099
459.300, 0.099
459.400, 0.095
459.500, 0.100
459.600, 0.109
459.700, 0.104
459.800, 0.112
459.900, 0.114
460.000, 0.105
460.100, 0.097
460.200, 0.099
460.300, 0.096
460.400, 0.104
460.500, 0.101
460.600, 0.105
460.700, 0.104
460.800, 0.097
460.900, 0.112
461.000, 0.116
461.100, 0.111
461.200, 0.110
461.300, 0.111
461.400, 0.100
461.500, 0.100
461.600, 0.095
461.700, 0.095
461.800, 0.097
461.900, 0.091
462.000, 0.101
462.100, 0.100
462.200, 0.111
462.300, 0.093
462.400, 0.100
462.500, 0.100
462.600, 0.102
462.700, 0.104
462.800, 0.094
462.900, 0.101
463.000, 0.110
463.100, 0.090
463.200, 0.103
463.300, 0.101
463.400, 0.104
463.500, 0.122
463.600, 0.112
463.700, 0.114
463.800, 0.107
463.900, 0.109
464.000, 0.099
464.100, 0.110
464.200, 0.124
464.300, 0.114
464.400, 0.108
464.500, 0.126
464.600, 0.121
464.700, 0.127
464.800, 0.103
464.900, 0.109
465.000, 0.106
465.100, 0.113
465.200, 0.102
465.300, 0.119
465.400, 0.109
465.500, 0.099
465.600, 0.094
465.700, 0.108
465.800, 0.109
465.900, 0.112
466.000, 0.113
466.100, 0.108
466.200, 0.122
466.300, 0.118
466.400, 0.117
466.500, 0.111
466.600, 0.122
466.700, 0.112
466.800, 0.112
466.900, 0.109
467.000, 0.110
467.100, 0.113
467.200, 0.115
467.300, 0.106
467.400, 0.112
467.500, 0.126
467.600, 0.119
467.700, 0.116
467.800, 0.102
467.900, 0.105
468.000, 0.108
468.100, 0.112
468.200, 0.115
468.300, 0.114
468.400, 0.113
468.500, 0.109
468.600, 0.111
468.700, 0.115
468.800, 0.113
468.900, 0.100
469.000, 0.105
469.100, 0.101
469.200, 0.105
469.300, 0.108
469.400, 0.118
469.500, 0.107
469.600, 0.094
469.700, 0.099
469.800, 0.126
469.900, 0.112
470.000, 0.119
470.100, 0.119
470.200, 0.129
470.300, 0.121
470.400, 0.116
470.500, 0.123
470.600, 0.116
470.700, 0.109
470.800, 0.110
470.900, 0.118
471.000, 0.129
471.100, 0.117
471.200, 0.129
471.300, 0.127
471.400, 0.126
471.500, 0.116
471.600, 0.111
471.700, 0.111
471.800, 0.110
471.900, 0.123
472.000, 0.115
472.100, 0.121
472.200, 0.118
472.300, 0.115
472.400, 0.119
472.500, 0.115
472.600, 0.112
472.700, 0.109
472.800, 0.112
472.900, 0.110
473.000, 0.115
473.100, 0.105
473.200, 0.118
473.300, 0.104
473.400, 0.118
473.500, 0.108
473.600, 0.113
473.700, 0.115
473.800, 0.104
473.900, 0.105
474.000, 0.114
474.100, 0.105
474.200, 0.114
474.300, 0.112
474.400, 0.107
474.500, 0.108
474.600, 0.112
474.700, 0.110
474.800, 0.110
474.900, 0.110
475.000, 0.111
475.100, 0.115
475.200, 0.121
475.300, 0.114
475.400, 0.115
475.500, 0.103
475.600, 0.109
475.700, 0.109
475.800, 0.102
475.900, 0.106
476.000, 0.103
476.100, 0.118
476.200, 0.099
476.300, 0.113
476.400, 0.107
476.500, 0.105
476.600, 0.113
476.700, 0.106
476.800, 0.116
476.900, 0.102
477.000, 0.101
477.100, 0.101
477.200, 0.107
477.300, 0.111
477.400, 0.122
477.500, 0.114
477.600, 0.106
477.700, 0.103
477.800, 0.106
477.900, 0.107
478.000, 0.113
478.100, 0.107
478.200, 0.101
478.300, 0.102
478.400, 0.106
478.500, 0.106
478.600, 0.103
478.700, 0.109
478.800, 0.106
478.900, 0.109
479.000, 0.098
479.100, 0.109
479.200, 0.109
479.300, 0.103
479.400, 0.101
479.500, 0.098
479.600, 0.096
479.700, 0.103
479.800, 0.100
479.900, 0.109
480.000, 0.094
480.100, 0.103
480.200, 0.103
480.300, 0.108
480.400, 0.106
480.500, 0.101
480.600, 0.102
480.700, 0.100
480.800, 0.099
480.900, 0.099
481.000, 0.104
481.100, 0.111
481.200, 0.104
481.300, 0.107
481.400, 0.109
481.500, 0.097
481.600, 0.102
481.700, 0.110
481.800, 0.103
481.900, 0.108
482.000, 0.106
482.100, 0.093
482.200, 0.096
482.300, 0.100
482.400, 0.109
482.500, 0.105
482.600, 0.101
482.700, 0.109
482.800, 0.105
482.900, 0.096
483.000, 0.100
483.100, 0.096
483.200, 0.101
483.300, 0.110
483.400, 0.103
483.500, 0.104
483.600, 0.107
483.700, 0.108
483.800, 0.107
483.900, 0.104
484.000, 0.106
484.100, 0.115
484.200, 0.105
484.300, 0.105
484.400, 0.110
484.500, 0.105
484.600, 0.112
484.700, 0.103
484.800, 0.109
484.900, 0.117
485.000, 0.124
485.100, 0.123
485.200, 0.106
485.300, 0.125
485.400, 0.105
485.500, 0.108
485.600, 0.112
485.700, 0.112
485.800, 0.102
485.900, 0.098
486.000, 0.106
486.100, 0.107
486.200, 0.107
486.300, 0.103
486.400, 0.110
486.500, 0.100
486.600, 0.105
486.700, 0.101
486.800, 0.108
486.900, 0.097
487.000, 0.111
487.100, 0.111
487.200, 0.102
487.300, 0.101
487.400, 0.106
487.500, 0.098
487.600, 0.102
487.700, 0.107
487.800, 0.105
487.900, 0.103
488.000, 0.101
488.100, 0.097
488.200, 0.095
488.300, 0.107
488.400, 0.104
488.500, 0.098
488.600, 0.093
488.700, 0.097
488.800, 0.100
488.900, 0.104
489.000, 0.112
489.100, 0.098
489.200, 0.101
489.300, 0.099
489.400, 0.103
489.500, 0.109
489.600, 0.103
489.700, 0.108
489.800, 0.107
489.900, 0.116
490.000, 0.106
490.100, 0.107
490.200, 0.110
490.300, 0.103
490.400, 0.096
490.500, 0.098
490.600, 0.110
490.700, 0.112
490.800, 0.110
490.900, 0.105
491.000, 0.110
491.100, 0.101
491.200, 0.108
491.300, 0.117
491.400, 0.126
491.500, 0.112
491.600, 0.115
491.700, 0.111
491.800, 0.094
491.900, 0.098
492.000, 0.097
492.100, 0.104
492.200, 0.101
492.300, 0.110
492.400, 0.110
492.500, 0.112
492.600, 0.108
492.700, 0.113
492.800, 0.105
492.900, 0.111
493.000, 0.105
493.100, 0.097
493.200, 0.100
493.300, 0.104
493.400, 0.101
493.500, 0.103
493.600, 0.105
493.700, 0.109
493.800, 0.108
493.900, 0.106
494.000, 0.109
494.100, 0.098
494.200, 0.097
494.300, 0.097
494.400, 0.109
494.500, 0.093
494.600, 0.088
494.700, 0.092
494.800, 0.100
494.900, 0.096
495.000, 0.103
495.100, 0.100
495.200, 0.115
495.300, 0.107
495.400, 0.125
495.500, 0.106
495.600, 0.098
495.700, 0.101
495.800, 0.106
495.900, 0.103
496.000, 0.100
496.100, 0.102
496.200, 0.105
496.300, 0.113
496.400, 0.099
496.500, 0.102
496.600, 0.099
496.700, 0.092
496.800, 0.099
496.900, 0.098
497.000, 0.100
497.100, 0.106
497.200, 0.107
497.300, 0.098
497.400, 0.102
497.500, 0.096
497.600, 0.106
497.700, 0.097
497.800, 0.102
497.900, 0.102
498.000, 0.106
498.100, 0.114
498.200, 0.103
498.300, 0.098
498.400, 0.093
498.500, 0.085
498.600, 0.088
498.700, 0.085
498.800, 0.099
498.900, 0.103
499.000, 0.107
499.100, 0.097
499.200, 0.099
499.300, 0.088
499.400, 0.092
499.500, 0.089
499.600, 0.098
499.700, 0.097
499.800, 0.094
499.900, 0.092
500.000, 0.093
500.100, 0.092
500.200, 0.094
500.300, 0.090
500.400, 0.090
500.500, 0.091
500.600, 0.096
500.700, 0.104
500.800, 0.108
500.900, 0.107
501.000, 0.091
501.100, 0.099
501.200, 0.092
501.300, 0.095
501.400, 0.089
501.500, 0.094
501.600, 0.097
501.700, 0.096
501.800, 0.105
501.900, 0.108
502.000, 0.100
502.100, 0.107
502.200, 0.102
502.300, 0.103
502.400, 0.100
502.500, 0.102
502.600, 0.097
502.700, 0.101
502.800, 0.104
502.900, 0.107
503.000, 0.106
503.100, 0.102
503.200, 0.109
503.300, 0.102
503.400, 0.103
503.500, 0.106
503.600, 0.115
503.700, 0.112
503.800, 0.104
503.900, 0.113
504.000, 0.113
504.100, 0.112
504.200, 0.110
504.300, 0.105
504.400, 0.110
504.500, 0.123
504.600, 0.126
504.700, 0.111
504.800, 0.110
504.900, 0.115
505.000, 0.113
505.100, 0.118
505.200, 0.102
505.300, 0.104
505.400, 0.098
505.500, 0.116
505.600, 0.115
505.700, 0.107
505.800, 0.097
505.900, 0.092
506.000, 0.104
506.100, 0.103
506.200, 0.101
506.300, 0.098
506.400, 0.098
506.500, 0.101
506.600, 0.103
506.700, 0.097
506.800, 0.094
506.900, 0.099
507.000, 0.104
507.100, 0.103
507.200, 0.091
507.300, 0.097
507.400, 0.103
507.500, 0.104
507.600, 0.099
507.700, 0.097
507.800, 0.090
507.900, 0.100
508.000, 0.099
508.100, 0.097
508.200, 0.103
508.300, 0.110
508.400, 0.116
508.500, 0.103
508.600, 0.104
508.700, 0.110
508.800, 0.110
508.900, 0.113
509.000, 0.112
509.100, 0.116
509.200, 0.116
509.300, 0.108
509.400, 0.107
509.500, 0.108
509.600, 0.109
509.700, 0.109
509.800, 0.106
509.900, 0.108
510.000, 0.105
510.100, 0.104
510.200, 0.105
510.300, 0.110
510.400, 0.116
510.500, 0.118
510.600, 0.111
510.700, 0.114
510.800, 0.110
510.900, 0.117
511.000, 0.102
511.100, 0.097
511.200, 0.095
511.300, 0.102
511.400, 0.111
511.500, 0.112
511.600, 0.107
511.700, 0.108
511.800, 0.112
511.900, 0.110
512.000, 0.104
512.100, 0.104
512.200, 0.109
512.300, 0.109
512.400, 0.108
512.500, 0.100
512.600, 0.106
512.700, 0.106
512.800, 0.109
512.900, 0.107
513.000, 0.102
513.100, 0.106
513.200, 0.103
513.300, 0.094
513.400, 0.102
513.500, 0.099
513.600, 0.097
513.700, 0.102
513.800, 0.103
513.900, 0.098
514.000, 0.100
514.100, 0.108
514.200, 0.109
514.300, 0.106
514.400, 0.105
514.500, 0.097
514.600, 0.106
514.700, 0.100
514.800, 0.117
514.900, 0.113
515.000, 0.104
515.100, 0.104
515.200, 0.113
515.300, 0.101
515.400, 0.104
515.500, 0.114
515.600, 0.109
515.700, 0.107
515.800, 0.108
515.900, 0.110
516.000, 0.113
516.100, 0.104
516.200, 0.102
516.300, 0.103
516.400, 0.098
516.500, 0.102
516.600, 0.106
516.700, 0.102
516.800, 0.094
516.900, 0.105
517.000, 0.101
517.100, 0.099
517.200, 0.103
517.300, 0.094
517.400, 0.094
517.500, 0.091
517.600, 0.095
517.700, 0.093
517.800, 0.089
517.900, 0.095
518.000, 0.103
518.100, 0.102
518.200, 0.089
518.300, 0.093
518.400, 0.100
518.500, 0.099
518.600, 0.094
518.700, 0.100
518.800, 0.099
518.900, 0.093
519.000, 0.098
519.100, 0.098
519.200, 0.099
519.300, 0.100
519.400, 0.099
519.500, 0.095
519.600, 0.099
519.700, 0.100
519.800, 0.102
519.900, 0.103
520.000, 0.100
520.100, 0.101
520.200, 0.094
520.300, 0.096
520.400, 0.094
520.500, 0.093
520.600, 0.104
520.700, 0.102
520.800, 0.099
520.900, 0.092
521.000, 0.109
521.100, 0.106
521.200, 0.110
521.300, 0.114
521.400, 0.111
521.500, 0.124
521.600, 0.123
521.700, 0.100
521.800, 0.103
521.900, 0.095
522.000, 0.102
522.100, 0.110
522.200, 0.106
522.300, 0.095
522.400, 0.104
522.500, 0.111
522.600, 0.102
522.700, 0.103
522.800, 0.102
522.900, 0.101
523.000, 0.095
523.100, 0.112
523.200, 0.107
523.300, 0.104
523.400, 0.101
523.500, 0.099
523.600, 0.099
523.700, 0.103
523.800, 0.102
523.900, 0.100
524.000, 0.104
524.100, 0.109
524.200, 0.099
524.300, 0.099
524.400, 0.096
524.500, 0.097
524.600, 0.105
524.700, 0.098
524.800, 0.108
524.900, 0.101
525.000, 0.110
525.100, 0.089
525.200, 0.091
525.300, 0.093
525.400, 0.087
525.500, 0.097
525.600, 0.099
525.700, 0.101
525.800, 0.104
525.900, 0.108
526.000, 0.107
526.100, 0.096
526.200, 0.096
526.300, 0.100
526.400, 0.099
526.500, 0.100
526.600, 0.100
526.700, 0.104
526.800, 0.091
526.900, 0.099
527.000, 0.103
527.100, 0.099
527.200, 0.097
527.300, 0.101
527.400, 0.096
527.500, 0.095
527.600, 0.095
527.700, 0.099
527.800, 0.093
527.900, 0.098
528.000, 0.099
528.100, 0.105
528.200, 0.098
528.300, 0.097
528.400, 0.100
528.500, 0.092
528.600, 0.092
528.700, 0.086
528.800, 0.095
528.900, 0.096
529.000, 0.098
529.100, 0.102
529.200, 0.100
529.300, 0.102
529.400, 0.098
529.500, 0.111
529.600, 0.100
529.700, 0.100
529.800, 0.109
529.900, 0.102
530.000, 0.098
530.100, 0.100
530.200, 0.094
530.300, 0.096
530.400, 0.093
530.500, 0.098
530.600, 0.100
530.700, 0.093
530.800, 0.102
530.900, 0.098
531.000, 0.109
531.100, 0.103
531.200, 0.108
531.300, 0.107
531.400, 0.101
531.500, 0.109
531.600, 0.102
531.700, 0.101
531.800, 0.098
531.900, 0.098
532.000, 0.104
532.100, 0.110
532.200, 0.113
532.300, 0.115
532.400, 0.103
532.500, 0.109
532.600, 0.108
532.700, 0.099
532.800, 0.091
532.900, 0.095
533.000, 0.106
533.100, 0.110
533.200, 0.099
533.300, 0.099
533.400, 0.102
533.500, 0.109
533.600, 0.106
533.700, 0.112
533.800, 0.108
533.900, 0.098
534.000, 0.114
534.100, 0.098
534.200, 0.110
534.300, 0.123
534.400, 0.104
534.500, 0.093
534.600, 0.105
534.700, 0.112
534.800, 0.106
534.900, 0.101
535.000, 0.100
535.100, 0.103
535.200, 0.106
535.300, 0.112
535.400, 0.096
535.500, 0.108
535.600, 0.100
535.700, 0.099
535.800, 0.089
535.900, 0.103
536.000, 0.089
536.100, 0.090
536.200, 0.097
536.300, 0.099
536.400, 0.097
536.500, 0.103
536.600, 0.092
536.700, 0.090
536.800, 0.082
536.900, 0.102
537.000, 0.093
537.100, 0.103
537.200, 0.104
537.300, 0.106
537.400, 0.094
537.500, 0.117
537.600, 0.102
537.700, 0.107
537.800, 0.096
537.900, 0.107
538.000, 0.110
538.100, 0.113
538.200, 0.097
538.300, 0.113
538.400, 0.100
538.500, 0.102
538.600, 0.096
538.700, 0.098
538.800, 0.113
538.900, 0.105
539.000, 0.095
539.100, 0.099
539.200, 0.100
539.300, 0.091
539.400, 0.107
539.500, 0.105
539.600, 0.109
539.700, 0.092
539.800, 0.100
539.900, 0.098
540.000, 0.106
540.100, 0.101
540.200, 0.100
540.300, 0.106
540.400, 0.107
540.500, 0.108
540.600, 0.104
540.700, 0.097
540.800, 0.100
540.900, 0.096
541.000, 0.113
541.100, 0.099
541.200, 0.098
541.300, 0.089
541.400, 0.095
541.500, 0.094
541.600, 0.097
541.700, 0.100
541.800, 0.096
541.900, 0.102
542.000, 0.092
542.100, 0.096
542.200, 0.104
542.300, 0.102
542.400, 0.105
542.500, 0.102
542.600, 0.100
542.700, 0.087
542.800, 0.102
542.900, 0.101
543.000, 0.101
543.100, 0.103
543.200, 0.094
543.300, 0.096
543.400, 0.098
543.500, 0.106
543.600, 0.106
543.700, 0.097
543.800, 0.106
543.900, 0.104
544.000, 0.092
544.100, 0.103
544.200, 0.098
544.300, 0.103
544.400, 0.099
544.500, 0.103
544.600, 0.103
544.700, 0.109
544.800, 0.099
544.900, 0.090
545.000, 0.106
545.100, 0.110
545.200, 0.092
545.300, 0.109
545.400, 0.098
545.500, 0.099
545.600, 0.108
545.700, 0.113
545.800, 0.100
545.900, 0.095
546.000, 0.100
546.100, 0.094
546.200, 0.094
546.300, 0.094
546.400, 0.093
546.500, 0.093
546.600, 0.091
546.700, 0.095
546.800, 0.097
546.900, 0.090
547.000, 0.089
547.100, 0.090
547.200, 0.099
547.300, 0.096
547.400, 0.095
547.500, 0.093
547.600, 0.088
547.700, 0.098
547.800, 0.096
547.900, 0.093
548.000, 0.083
548.100, 0.093
548.200, 0.096
548.300, 0.090
548.400, 0.106
548.500, 0.104
548.600, 0.094
548.700, 0.102
548.800, 0.105
548.900, 0.104
549.000, 0.100
549.100, 0.100
549.200, 0.103
549.300, 0.104
549.400, 0.113
549.500, 0.098
549.600, 0.105
549.700, 0.098
549.800, 0.100
549.900, 0.098
550.000, 0.105
550.100, 0.102
550.200, 0.103
550.300, 0.107
550.400, 0.103
550.500, 0.100
550.600, 0.096
550.700, 0.106
550.800, 0.101
550.900, 0.109
551.000, 0.098
551.100, 0.099
551.200, 0.092
551.300, 0.105
551.400, 0.109
551.500, 0.106
551.600, 0.094
551.700, 0.105
551.800, 0.103
551.900, 0.101
552.000, 0.099
552.100, 0.103
552.200, 0.104
552.300, 0.107
552.400, 0.102
552.500, 0.105
552.600, 0.099
552.700, 0.097
552.800, 0.097
552.900, 0.104
553.000, 0.102
553.100, 0.103
553.200, 0.093
553.300, 0.100
553.400, 0.094
553.500, 0.096
553.600, 0.094
553.700, 0.087
553.800, 0.102
553.900, 0.100
554.000, 0.112
554.100, 0.108
554.200, 0.118
554.300, 0.105
554.400, 0.101
554.500, 0.098
554.600, 0.106
554.700, 0.101
554.800, 0.107
554.900, 0.093
555.000, 0.096
555.100, 0.092
555.200, 0.097
555.300, 0.107
555.400, 0.094
555.500, 0.096
555.600, 0.096
555.700, 0.089
555.800, 0.095
555.900, 0.096
556.000, 0.094
556.100, 0.098
556.200, 0.109
556.300, 0.098
556.400, 0.099
556.500, 0.101
556.600, 0.109
556.700, 0.101
556.800, 0.105
556.900, 0.099
557.000, 0.106
557.100, 0.115
557.200, 0.107
557.300, 0.105
557.400, 0.097
557.500, 0.101
557.600, 0.091
557.700, 0.098
557.800, 0.098
557.900, 0.093
558.000, 0.094
558.100, 0.093
558.200, 0.088
558.300, 0.089
558.400, 0.093
558.500, 0.085
558.600, 0.099
558.700, 0.096
558.800, 0.092
558.900, 0.092
559.000, 0.098
559.100, 0.096
559.200, 0.096
559.300, 0.099
559.400, 0.090
559.500, 0.095
559.600, 0.086
559.700, 0.093
559.800, 0.095
559.900, 0.089
560.000, 0.106
560.100, 0.100
560.200, 0.104
560.300, 0.109
560.400, 0.098
560.500, 0.098
560.600, 0.106
560.700, 0.095
560.800, 0.108
560.900, 0.104
561.000, 0.113
561.100, 0.103
561.200, 0.099
561.300, 0.107
561.400, 0.105
561.500, 0.107
561.600, 0.098
561.700, 0.093
561.800, 0.097
561.900, 0.089
562.000, 0.108
562.100, 0.088
562.200, 0.093
562.300, 0.102
562.400, 0.100
562.500, 0.094
562.600, 0.088
562.700, 0.087
562.800, 0.091
562.900, 0.091
563.000, 0.086
563.100, 0.088
563.200, 0.102
563.300, 0.105
563.400, 0.109
563.500, 0.104
563.600, 0.100
563.700, 0.105
563.800, 0.093
563.900, 0.105
564.000, 0.112
564.100, 0.113
564.200, 0.093
564.300, 0.113
564.400, 0.098
564.500, 0.100
564.600, 0.102
564.700, 0.110
564.800, 0.093
564.900, 0.089
565.000, 0.104
565.100, 0.112
565.200, 0.107
565.300, 0.096
565.400, 0.099
565.500, 0.104
565.600, 0.118
565.700, 0.105
565.800, 0.094
565.900, 0.096
566.000, 0.095
566.100, 0.101
566.200, 0.105
566.300, 0.104
566.400, 0.101
566.500, 0.106
566.600, 0.104
566.700, 0.108
566.800, 0.104
566.900, 0.101
567.000, 0.109
567.100, 0.105
567.200, 0.102
567.300, 0.096
567.400, 0.101
567.500, 0.092
567.600, 0.100
567.700, 0.100
567.800, 0.103
567.900, 0.101
568.000, 0.099
568.100, 0.092
568.200, 0.100
568.300, 0.098
568.400, 0.109
568.500, 0.104
568.600, 0.094
568.700, 0.100
568.800, 0.104
568.900, 0.105
569.000, 0.110
569.100, 0.102
569.200, 0.106
569.300, 0.110
569.400, 0.097
569.500, 0.100
569.600, 0.102
569.700, 0.100
569.800, 0.106
569.900, 0.110
570.000, 0.103
570.100, 0.102
570.200, 0.097
570.300, 0.091
570.400, 0.094
570.500, 0.096
570.600, 0.096
570.700, 0.093
570.800, 0.096
570.900, 0.103
571.000, 0.102
571.100, 0.102
571.200, 0.112
571.300, 0.107
571.400, 0.102
571.500, 0.102
571.600, 0.099
571.700, 0.100
571.800, 0.102
571.900, 0.100
572.000, 0.105
572.100, 0.103
572.200, 0.099
572.300, 0.118
572.400, 0.103
572.500, 0.122
572.600, 0.110
572.700, 0.113
572.800, 0.115
572.900, 0.097
573.000, 0.116
573.100, 0.117
573.200, 0.112
573.300, 0.114
573.400, 0.114
573.500, 0.102
573.600, 0.103
573.700, 0.098
573.800, 0.106
573.900, 0.097
574.000, 0.103
574.100, 0.099
574.200, 0.101
574.300, 0.099
574.400, 0.100
574.500, 0.102
574.600, 0.102
574.700, 0.104
574.800, 0.105
574.900, 0.100
575.000, 0.109
575.100, 0.100
575.200, 0.101
575.300, 0.104
575.400, 0.101
575.500, 0.093
575.600, 0.095
575.700, 0.096
575.800, 0.088
575.900, 0.098
576.000, 0.097
576.100, 0.105
576.200, 0.111
576.300, 0.111
576.400, 0.101
576.500, 0.107
576.600, 0.099
576.700, 0.099
576.800, 0.114
576.900, 0.105
577.000, 0.093
577.100, 0.109
577.200, 0.104
577.300, 0.110
577.400, 0.114
577.500, 0.101
577.600, 0.098
577.700, 0.106
577.800, 0.103
577.900, 0.105
578.000, 0.106
578.100, 0.095
578.200, 0.106
578.300, 0.109
578.400, 0.111
578.500, 0.108
578.600, 0.099
578.700, 0.100
578.800, 0.101
578.900, 0.110
579.000, 0.102
579.100, 0.093
579.200, 0.095
579.300, 0.099
579.400, 0.100
579.500, 0.097
579.600, 0.111
579.700, 0.100
579.800, 0.101
579.900, 0.102
580.000, 0.091
580.100, 0.093
580.200, 0.098
580.300, 0.098
580.400, 0.099
580.500, 0.099
580.600, 0.102
580.700, 0.099
580.800, 0.111
580.900, 0.106
581.000, 0.110
581.100, 0.106
581.200, 0.099
581.300, 0.110
581.400, 0.106
581.500, 0.104
581.600, 0.108
581.700, 0.101
581.800, 0.102
581.900, 0.111
582.000, 0.115
582.100, 0.113
582.200, 0.104
582.300, 0.106
582.400, 0.110
582.500, 0.104
582.600, 0.127
582.700, 0.121
582.800, 0.116
582.900, 0.121
583.000, 0.117
583.100, 0.127
583.200, 0.106
583.300, 0.116
583.400, 0.109
583.500, 0.107
583.600, 0.118
583.700, 0.108
583.800, 0.096
583.900, 0.089
584.000, 0.094
584.100, 0.105
584.200, 0.105
584.300, 0.119
584.400, 0.116
584.500, 0.111
584.600, 0.116
584.700, 0.109
584.800, 0.118
584.900, 0.114
585.000, 0.111
585.100, 0.110
585.200, 0.108
585.300, 0.105
585.400, 0.109
585.500, 0.107
585.600, 0.103
585.700, 0.103
585.800, 0.099
585.900, 0.101
586.000, 0.099
586.100, 0.095
586.200, 0.104
586.300, 0.102
586.400, 0.097
586.500, 0.098
586.600, 0.092
586.700, 0.107
586.800, 0.095
586.900, 0.099
587.000, 0.103
587.100, 0.098
587.200, 0.106
587.300, 0.101
587.400, 0.108
587.500, 0.103
587.600, 0.106
587.700, 0.108
587.800, 0.103
587.900, 0.107
588.000, 0.105
588.100, 0.111
588.200, 0.103
588.300, 0.104
588.400, 0.100
588.500, 0.103
588.600, 0.109
588.700, 0.107
588.800, 0.099
588.900, 0.091
589.000, 0.099
589.100, 0.096
589.200, 0.105
589.300, 0.099
589.400, 0.101
589.500, 0.091
589.600, 0.110
589.700, 0.102
589.800, 0.095
589.900, 0.088
590.000, 0.094
590.100, 0.098
590.200, 0.091
590.300, 0.105
590.400, 0.102
590.500, 0.106
590.600, 0.108
590.700, 0.095
590.800, 0.100
590.900, 0.095
591.000, 0.096
591.100, 0.103
591.200, 0.108
591.300, 0.107
591.400, 0.118
591.500, 0.141
591.600, 0.119
591.700, 0.117
591.800, 0.113
591.900, 0.107
592.000, 0.113
592.100, 0.111
592.200, 0.112
592.300, 0.123
592.400, 0.126
592.500, 0.125
592.600, 0.111
592.700, 0.110
592.800, 0.108
592.900, 0.112
593.000, 0.107
593.100, 0.107
593.200, 0.100
593.300, 0.111
593.400, 0.106
593.500, 0.114
593.600, 0.093
593.700, 0.107
593.800, 0.093
593.900, 0.100
594.000, 0.087
594.100, 0.100
594.200, 0.105
594.300, 0.102
594.400, 0.109
594.500, 0.106
594.600, 0.103
594.700, 0.110
594.800, 0.111
594.900, 0.109
595.000, 0.094
595.100, 0.098
595.200, 0.108
595.300, 0.115
595.400, 0.098
595.500, 0.102
595.600, 0.096
595.700, 0.093
595.800, 0.091
595.900, 0.091
596.000, 0.091
596.100, 0.097
596.200, 0.092
596.300, 0.087
596.400, 0.093
596.500, 0.089
596.600, 0.088
596.700, 0.083
596.800, 0.087
596.900, 0.091
597.000, 0.084
597.100, 0.089
597.200, 0.083
597.300, 0.081
597.400, 0.080
597.500, 0.089
597.600, 0.086
597.700, 0.081
597.800, 0.083
597.900, 0.076
598.000, 0.080
598.100, 0.088
598.200, 0.089
598.300, 0.086
598.400, 0.091
598.500, 0.103
598.600, 0.093
598.700, 0.092
598.800, 0.090
598.900, 0.100
599.000, 0.100
599.100, 0.105
599.200, 0.092
599.300, 0.096
599.400, 0.093
599.500, 0.093
599.600, 0.095
599.700, 0.091
599.800, 0.102
599.900, 0.089
600.000, 0.090
600.100, 0.103
600.200, 0.099
600.300, 0.109
600.400, 0.121
600.500, 0.103
600.600, 0.110
600.700, 0.101
600.800, 0.108
600.900, 0.101
601.000, 0.099
601.100, 0.091
601.200, 0.094
601.300, 0.101
601.400, 0.094
601.500, 0.094
601.600, 0.092
601.700, 0.091
601.800, 0.100
601.900, 0.100
602.000, 0.098
602.100, 0.094
602.200, 0.096
602.300, 0.092
602.400, 0.106
602.500, 0.103
602.600, 0.098
602.700, 0.094
602.800, 0.097
602.900, 0.104
603.000, 0.107
603.100, 0.095
603.200, 0.095
603.300, 0.094
603.400, 0.084
603.500, 0.084
603.600, 0.075
603.700, 0.089
603.800, 0.100
603.900, 0.105
604.000, 0.093
604.100, 0.092
604.200, 0.092
604.300, 0.092
604.400, 0.089
604.500, 0.087
604.600, 0.082
604.700, 0.090
604.800, 0.091
604.900, 0.081
605.000, 0.094
605.100, 0.088
605.200, 0.088
605.300, 0.089
605.400, 0.092
605.500, 0.088
605.600, 0.089
605.700, 0.085
605.800, 0.091
605.900, 0.089
606.000, 0.082
606.100, 0.085
606.200, 0.086
606.300, 0.091
606.400, 0.090
606.500, 0.096
606.600, 0.096
606.700, 0.089
606.800, 0.091
606.900, 0.088
607.000, 0.092
607.100, 0.089
607.200, 0.089
607.300, 0.105
607.400, 0.099
607.500, 0.093
607.600, 0.089
607.700, 0.098
607.800, 0.095
607.900, 0.092
608.000, 0.093
608.100, 0.096
608.200, 0.092
608.300, 0.091
608.400, 0.089
608.500, 0.093
608.600, 0.090
608.700, 0.092
608.800, 0.094
608.900, 0.090
609.000, 0.090
609.100, 0.089
609.200, 0.087
609.300, 0.089
609.400, 0.097
609.500, 0.081
609.600, 0.088
609.700, 0.092
609.800, 0.097
609.900, 0.092
610.000, 0.088
610.100, 0.086
610.200, 0.086
610.300, 0.093
610.400, 0.090
610.500, 0.092
610.600, 0.087
610.700, 0.088
610.800, 0.084
610.900, 0.087
611.000, 0.091
611.100, 0.081
611.200, 0.078
611.300, 0.092
611.400, 0.087
611.500, 0.091
611.600, 0.092
611.700, 0.095
611.800, 0.091
611.900, 0.108
612.000, 0.101
612.100, 0.096
612.200, 0.088
612.300, 0.093
612.400, 0.089
612.500, 0.083
612.600, 0.086
612.700, 0.084
612.800, 0.078
612.900, 0.088
613.000, 0.096
613.100, 0.093
613.200, 0.096
613.300, 0.094
613.400, 0.097
613.500, 0.095
613.600, 0.099
613.700, 0.111
613.800, 0.093
613.900, 0.094
614.000, 0.095
614.100, 0.089
614.200, 0.089
614.300, 0.086
614.400, 0.088
614.500, 0.088
614.600, 0.087
614.700, 0.087
614.800, 0.086
614.900, 0.089
615.000, 0.091
615.100, 0.088
615.200, 0.089
615.300, 0.092
615.400, 0.074
615.500, 0.089
615.600, 0.090
615.700, 0.087
615.800, 0.085
615.900, 0.088
616.000, 0.084
616.100, 0.085
616.200, 0.093
616.300, 0.085
616.400, 0.088
616.500, 0.090
616.600, 0.093
616.700, 0.098
616.800, 0.090
616.900, 0.086
617.000, 0.087
617.100, 0.095
617.200, 0.098
617.300, 0.101
617.400, 0.098
617.500, 0.098
617.600, 0.089
617.700, 0.106
617.800, 0.087
617.900, 0.096
618.000, 0.095
618.100, 0.098
618.200, 0.098
618.300, 0.094
618.400, 0.097
618.500, 0.097
618.600, 0.100
618.700, 0.090
618.800, 0.095
618.900, 0.097
619.000, 0.095
619.100, 0.094
619.200, 0.102
619.300, 0.097
619.400, 0.102
619.500, 0.090
619.600, 0.093
619.700, 0.105
619.800, 0.098
619.900, 0.095
620.000, 0.097
620.100, 0.098
620.200, 0.100
620.300, 0.103
620.400, 0.106
620.500, 0.106
620.600, 0.102
620.700, 0.109
620.800, 0.105
620.900, 0.100
621.000, 0.094
621.100, 0.100
621.200, 0.106
621.300, 0.102
621.400, 0.098
621.500, 0.091
621.600, 0.095
621.700, 0.088
621.800, 0.094
621.900, 0.087
622.000, 0.090
622.100, 0.092
622.200, 0.097
622.300, 0.095
622.400, 0.092
622.500, 0.100
622.600, 0.092
622.700, 0.094
622.800, 0.094
622.900, 0.086
623.000, 0.082
623.100, 0.087
623.200, 0.086
623.300, 0.097
623.400, 0.109
623.500, 0.088
623.600, 0.086
623.700, 0.079
623.800, 0.089
623.900, 0.097
624.000, 0.097
624.100, 0.088
624.200, 0.101
624.300, 0.084
624.400, 0.089
624.500, 0.090
624.600, 0.083
624.700, 0.081
624.800, 0.087
624.900, 0.090
625.000, 0.090
625.100, 0.079
625.200, 0.086
625.300, 0.081
625.400, 0.080
625.500, 0.077
625.600, 0.076
625.700, 0.078
625.800, 0.078
625.900, 0.084
626.000, 0.091
626.100, 0.090
626.200, 0.087
626.300, 0.087
626.400, 0.090
626.500, 0.087
626.600, 0.091
626.700, 0.090
626.800, 0.095
626.900, 0.088
627.000, 0.091
627.100, 0.077
627.200, 0.091
627.300, 0.101
627.400, 0.092
627.500, 0.091
627.600, 0.083
627.700, 0.079
627.800, 0.088
627.900, 0.096
628.000, 0.091
628.100, 0.087
628.200, 0.081
628.300, 0.087
628.400, 0.094
628.500, 0.096
628.600, 0.090
628.700, 0.106
628.800, 0.099
628.900, 0.082
629.000, 0.090
629.100, 0.091
629.200, 0.084
629.300, 0.087
629.400, 0.088
629.500, 0.086
629.600, 0.088
629.700, 0.089
629.800, 0.086
629.900, 0.088
630.000, 0.090
630.100, 0.094
630.200, 0.094
630.300, 0.097
630.400, 0.103
630.500, 0.098
630.600, 0.084
630.700, 0.088
630.800, 0.088
630.900, 0.095
631.000, 0.093
631.100, 0.100
631.200, 0.089
631.300, 0.097
631.400, 0.098
631.500, 0.097
631.600, 0.098
631.700, 0.099
631.800, 0.084
631.900, 0.090
632.000, 0.097
632.100, 0.089
632.200, 0.089
632.300, 0.093
632.400, 0.096
632.500, 0.084
632.600, 0.086
632.700, 0.089
632.800, 0.092
632.900, 0.091
633.000, 0.094
633.100, 0.104
633.200, 0.099
633.300, 0.094
633.400, 0.088
633.500, 0.093
633.600, 0.094
633.700, 0.089
633.800, 0.086
633.900, 0.087
634.000, 0.094
634.100, 0.091
634.200, 0.094
634.300, 0.093
634.400, 0.090
634.500, 0.085
634.600, 0.083
634.700, 0.082
634.800, 0.086
634.900, 0.084
635.000, 0.085
635.100, 0.091
635.200, 0.091
635.300, 0.086
635.400, 0.087
635.500, 0.086
635.600, 0.081
635.700, 0.092
635.800, 0.087
635.900, 0.087
636.000, 0.094
636.100, 0.091
636.200, 0.100
636.300, 0.102
636.400, 0.099
636.500, 0.098
636.600, 0.092
636.700, 0.100
636.800, 0.104
636.900, 0.100
637.000, 0.094
637.100, 0.103
637.200, 0.092
637.300, 0.102
637.400, 0.097
637.500, 0.088
637.600, 0.088
637.700, 0.091
637.800, 0.080
637.900, 0.097
638.000, 0.103
638.100, 0.079
638.200, 0.083
638.300, 0.094
638.400, 0.083
638.500, 0.081
638.600, 0.088
638.700, 0.084
638.800, 0.085
638.900, 0.082
639.000, 0.090
639.100, 0.088
639.200, 0.085
639.300, 0.090
639.400, 0.085
639.500, 0.078
639.600, 0.084
639.700, 0.087
639.800, 0.080
639.900, 0.098
640.000, 0.100
640.100, 0.097
640.200, 0.105
640.300, 0.092
640.400, 0.094
640.500, 0.094
640.600, 0.101
640.700, 0.095
640.800, 0.098
640.900, 0.098
641.000, 0.094
641.100, 0.104
641.200, 0.095
641.300, 0.090
641.400, 0.094
641.500, 0.088
641.600, 0.100
641.700, 0.099
641.800, 0.098
641.900, 0.094
642.000, 0.103
642.100, 0.102
642.200, 0.091
642.300, 0.091
642.400, 0.095
642.500, 0.093
642.600, 0.092
642.700, 0.091
642.800, 0.093
642.900, 0.089
643.000, 0.098
643.100, 0.103
643.200, 0.100
643.300, 0.098
643.400, 0.098
643.500, 0.111
643.600, 0.107
643.700, 0.100
643.800, 0.093
643.900, 0.092
644.000, 0.100
644.100, 0.097
644.200, 0.098
644.300, 0.099
644.400, 0.104
644.500, 0.090
644.600, 0.100
644.700, 0.088
644.800, 0.094
644.900, 0.091
645.000, 0.097
645.100, 0.094
645.200, 0.092
645.300, 0.091
645.400, 0.086
645.500, 0.082
645.600, 0.088
645.700, 0.090
645.800, 0.093
645.900, 0.091
646.000, 0.093
646.100, 0.087
646.200, 0.089
646.300, 0.099
646.400, 0.084
646.500, 0.098
646.600, 0.091
646.700, 0.085
646.800, 0.102
646.900, 0.095
647.000, 0.099
647.100, 0.100
647.200, 0.093
647.300, 0.094
647.400, 0.084
647.500, 0.088
647.600, 0.099
647.700, 0.095
647.800, 0.088
647.900, 0.090
648.000, 0.094
648.100, 0.096
648.200, 0.094
648.300, 0.094
648.400, 0.102
648.500, 0.101
648.600, 0.098
648.700, 0.093
648.800, 0.098
648.900, 0.103
649.000, 0.094
649.100, 0.099
649.200, 0.096
649.300, 0.098
649.400, 0.100
649.500, 0.105
649.600, 0.094
649.700, 0.093
649.800, 0.093
649.900, 0.095
650.000, 0.099
650.100, 0.097
650.200, 0.096
650.300, 0.099
650.400, 0.100
650.500, 0.096
650.600, 0.096
650.700, 0.094
650.800, 0.092
650.900, 0.094
651.000, 0.090
651.100, 0.098
651.200, 0.091
651.300, 0.092
651.400, 0.092
651.500, 0.091
651.600, 0.100
651.700, 0.106
651.800, 0.096
651.900, 0.089
652.000, 0.095
652.100, 0.094
652.200, 0.096
652.300, 0.092
652.400, 0.090
652.500, 0.094
652.600, 0.089
652.700, 0.085
652.800, 0.099
652.900, 0.094
653.000, 0.098
653.100, 0.091
653.200, 0.096
653.300, 0.100
653.400, 0.100
653.500, 0.098
653.600, 0.102
653.700, 0.100
653.800, 0.088
653.900, 0.090
654.000, 0.089
654.100, 0.096
654.200, 0.090
654.300, 0.102
654.400, 0.093
654.500, 0.105
654.600, 0.094
654.700, 0.097
654.800, 0.096
654.900, 0.090
655.000, 0.099
655.100, 0.083
655.200, 0.090
655.300, 0.081
655.400, 0.085
655.500, 0.085
655.600, 0.089
655.700, 0.088
655.800, 0.084
655.900, 0.088
656.000, 0.094
656.100, 0.092
656.200, 0.081
656.300, 0.082
656.400, 0.099
656.500, 0.090
656.600, 0.087
656.700, 0.098
656.800, 0.097
656.900, 0.089
657.000, 0.085
657.100, 0.098
657.200, 0.088
657.300, 0.081
657.400, 0.091
657.500, 0.087
657.600, 0.085
657.700, 0.092
657.800, 0.094
657.900, 0.094
658.000, 0.104
658.100, 0.092
658.200, 0.098
658.300, 0.087
658.400, 0.099
658.500, 0.101
658.600, 0.113
658.700, 0.114
658.800, 0.108
658.900, 0.096
659.000, 0.088
659.100, 0.092
659.200, 0.100
659.300, 0.104
659.400, 0.092
659.500, 0.104
659.600, 0.093
659.700, 0.091
659.800, 0.089
659.900, 0.083
660.000, 0.087
660.100, 0.084
660.200, 0.084
660.300, 0.095
660.400, 0.091
660.500, 0.092
660.600, 0.090
660.700, 0.093
660.800, 0.100
660.900, 0.107
661.000, 0.108
661.100, 0.095
661.200, 0.106
661.300, 0.103
661.400, 0.094
661.500, 0.084
661.600, 0.091
661.700, 0.088
661.800, 0.088
661.900, 0.093
662.000, 0.085
662.100, 0.097
662.200, 0.095
662.300, 0.093
662.400, 0.085
662.500, 0.089
662.600, 0.095
662.700, 0.092
662.800, 0.093
662.900, 0.097
663.000, 0.085
663.100, 0.094
663.200, 0.102
663.300, 0.092
663.400, 0.087
663.500, 0.088
663.600, 0.098
663.700, 0.099
663.800, 0.092
663.900, 0.086
664.000, 0.099
664.100, 0.095
664.200, 0.093
664.300, 0.098
664.400, 0.092
664.500, 0.093
664.600, 0.089
664.700, 0.085
664.800, 0.086
664.900, 0.084
665.000, 0.093
665.100, 0.088
665.200, 0.091
665.300, 0.085
665.400, 0.092
665.500, 0.090
665.600, 0.085
665.700, 0.092
665.800, 0.099
665.900, 0.102
666.000, 0.102
666.100, 0.094
666.200, 0.099
666.300, 0.106
666.400, 0.101
666.500, 0.100
666.600, 0.095
666.700, 0.096
666.800, 0.091
666.900, 0.090
667.000, 0.092
667.100, 0.090
667.200, 0.089
667.300, 0.090
667.400, 0.093
667.500, 0.097
667.600, 0.094
667.700, 0.100
667.800, 0.102
667.900, 0.102
668.000, 0.094
668.100, 0.104
668.200, 0.105
668.300, 0.105
668.400, 0.101
668.500, 0.109
668.600, 0.097
668.700, 0.087
668.800, 0.093
668.900, 0.094
669.000, 0.085
669.100, 0.088
669.200, 0.085
669.300, 0.086
669.400, 0.090
669.500, 0.090
669.600, 0.090
669.700, 0.083
669.800, 0.088
669.900, 0.091
670.000, 0.086
670.100, 0.088
670.200, 0.087
670.300, 0.087
670.400, 0.097
670.500, 0.091
670.600, 0.101
670.700, 0.099
670.800, 0.099
670.900, 0.094
671.000, 0.092
671.100, 0.097
671.200, 0.084
671.300, 0.093
671.400, 0.084
671.500, 0.085
671.600, 0.086
671.700, 0.088
671.800, 0.094
671.900, 0.090
672.000, 0.088
672.100, 0.089
672.200, 0.088
672.300, 0.094
672.400, 0.098
672.500, 0.096
672.600, 0.117
672.700, 0.108
672.800, 0.105
672.900, 0.093
673.000, 0.091
673.100, 0.090
673.200, 0.087
673.300, 0.089
673.400, 0.095
673.500, 0.097
673.600, 0.097
673.700, 0.089
673.800, 0.098
673.900, 0.097
674.000, 0.094
674.100, 0.089
674.200, 0.089
674.300, 0.089
674.400, 0.088
674.500, 0.087
674.600, 0.091
674.700, 0.084
674.800, 0.082
674.900, 0.092
675.000, 0.091
675.100, 0.094
675.200, 0.094
675.300, 0.089
675.400, 0.097
675.500, 0.087
675.600, 0.092
675.700, 0.094
675.800, 0.096
675.900, 0.096
676.000, 0.101
676.100, 0.098
676.200, 0.101
676.300, 0.112
676.400, 0.098
676.500, 0.101
676.600, 0.094
676.700, 0.090
676.800, 0.101
676.900, 0.096
677.000, 0.101
677.100, 0.101
677.200, 0.104
677.300, 0.108
677.400, 0.102
677.500, 0.105
677.600, 0.111
677.700, 0.118
677.800, 0.116
677.900, 0.114
678.000, 0.110
678.100, 0.103
678.200, 0.105
678.300, 0.109
678.400, 0.110
678.500, 0.104
678.600, 0.109
678.700, 0.098
678.800, 0.100
678.900, 0.094
679.000, 0.097
679.100, 0.100
679.200, 0.099
679.300, 0.095
679.400, 0.094
679.500, 0.095
679.600, 0.096
679.700, 0.097
679.800, 0.094
679.900, 0.095
680.000, 0.091
680.100, 0.094
680.200, 0.095
680.300, 0.091
680.400, 0.091
680.500, 0.088
680.600, 0.098
680.700, 0.090
680.800, 0.091
680.900, 0.092
681.000, 0.090
681.100, 0.092
681.200, 0.099
681.300, 0.098
681.400, 0.098
681.500, 0.092
681.600, 0.095
681.700, 0.087
681.800, 0.088
681.900, 0.091
682.000, 0.091
682.100, 0.094
682.200, 0.088
682.300, 0.091
682.400, 0.094
682.500, 0.094
682.600, 0.095
682.700, 0.091
682.800, 0.091
682.900, 0.090
683.000, 0.088
683.100, 0.094
683.200, 0.092
683.300, 0.088
683.400, 0.097
683.500, 0.107
683.600, 0.093
683.700, 0.095
683.800, 0.093
683.900, 0.101
684.000, 0.089
684.100, 0.111
684.200, 0.096
684.300, 0.092
684.400, 0.090
684.500, 0.097
684.600, 0.095
684.700, 0.095
684.800, 0.106
684.900, 0.102
685.000, 0.104
685.100, 0.100
685.200, 0.097
685.300, 0.090
685.400, 0.092
685.500, 0.092
685.600, 0.092
685.700, 0.092
685.800, 0.091
685.900, 0.096
686.000, 0.088
686.100, 0.097
686.200, 0.093
686.300, 0.092
686.400, 0.095
686.500, 0.096
686.600, 0.096
686.700, 0.090
686.800, 0.093
686.900, 0.092
687.000, 0.088
687.100, 0.086
687.200, 0.095
687.300, 0.093
687.400, 0.091
687.500, 0.086
687.600, 0.092
687.700, 0.088
687.800, 0.084
687.900, 0.084
688.000, 0.086
688.100, 0.090
688.200, 0.085
688.300, 0.094
688.400, 0.085
688.500, 0.085
688.600, 0.098
688.700, 0.094
688.800, 0.097
688.900, 0.101
689.000, 0.096
689.100, 0.099
689.200, 0.090
689.300, 0.090
689.400, 0.087
689.500, 0.087
689.600, 0.096
689.700, 0.098
689.800, 0.090
689.900, 0.088
690.000, 0.086
690.100, 0.092
690.200, 0.097
690.300, 0.090
690.400, 0.089
690.500, 0.092
690.600, 0.087
690.700, 0.086
690.800, 0.089
690.900, 0.084
691.000, 0.100
691.100, 0.081
691.200, 0.095
691.300, 0.095
691.400, 0.090
691.500, 0.090
691.600, 0.096
691.700, 0.106
691.800, 0.100
691.900, 0.094
692.000, 0.096
692.100, 0.097
692.200, 0.097
692.300, 0.107
692.400, 0.098
692.500, 0.115
692.600, 0.106
692.700, 0.098
692.800, 0.095
692.900, 0.093
693.000, 0.092
693.100, 0.095
693.200, 0.093
693.300, 0.093
693.400, 0.098
693.500, 0.098
693.600, 0.097
693.700, 0.091
693.800, 0.092
693.900, 0.089
694.000, 0.089
694.100, 0.087
694.200, 0.088
694.300, 0.090
694.400, 0.087
694.500, 0.080
694.600, 0.089
694.700, 0.088
694.800, 0.088
694.900, 0.097
695.000, 0.085
695.100, 0.085
695.200, 0.092
695.300, 0.093
695.400, 0.091
695.500, 0.093
695.600, 0.091
695.700, 0.092
695.800, 0.093
695.900, 0.092
696.000, 0.092
696.100, 0.088
696.200, 0.087
696.300, 0.086
696.400, 0.090
696.500, 0.090
696.600, 0.084
696.700, 0.091
696.800, 0.096
696.900, 0.086
697.000, 0.099
697.100, 0.091
697.200, 0.092
697.300, 0.082
697.400, 0.091
697.500, 0.088
697.600, 0.092
697.700, 0.096
697.800, 0.093
697.900, 0.097
698.000, 0.101
698.100, 0.107
698.200, 0.089
698.300, 0.094
698.400, 0.098
698.500, 0.095
698.600, 0.091
698.700, 0.091
698.800, 0.103
698.900, 0.091
699.000, 0.084
699.100, 0.089
699.200, 0.088
699.300, 0.092
699.400, 0.086
699.500, 0.093
699.600, 0.091
699.700, 0.085
699.800, 0.089
699.900, 0.087
700.000, 0.092
700.100, 0.098
700.200, 0.089
700.300, 0.084
700.400, 0.085
700.500, 0.094
700.600, 0.096
700.700, 0.091
700.800, 0.098
700.900, 0.091
701.000, 0.089
701.100, 0.086
701.200, 0.087
701.300, 0.092
701.400, 0.089
701.500, 0.093
701.600, 0.093
701.700, 0.087
701.800, 0.094
701.900, 0.080
702.000, 0.088
702.100, 0.087
702.200, 0.085
702.300, 0.094
702.400, 0.086
702.500, 0.089
702.600, 0.085
702.700, 0.085
702.800, 0.089
702.900, 0.083
703.000, 0.088
703.100, 0.080
703.200, 0.085
703.300, 0.079
703.400, 0.083
703.500, 0.083
703.600, 0.082
703.700, 0.088
703.800, 0.086
703.900, 0.088
704.000, 0.084
704.100, 0.084
704.200, 0.093
704.300, 0.082
704.400, 0.081
704.500, 0.084
704.600, 0.080
704.700, 0.090
704.800, 0.087
704.900, 0.074
705.000, 0.085
705.100, 0.082
705.200, 0.081
705.300, 0.073
705.400, 0.078
705.500, 0.084
705.600, 0.089
705.700, 0.084
705.800, 0.086
705.900, 0.093
706.000, 0.082
706.100, 0.085
706.200, 0.092
706.300, 0.087
706.400, 0.087
706.500, 0.084
706.600, 0.083
706.700, 0.086
706.800, 0.089
706.900, 0.087
707.000, 0.087
707.100, 0.078
707.200, 0.090
707.300, 0.087
707.400, 0.091
707.500, 0.086
707.600, 0.084
707.700, 0.085
707.800, 0.090
707.900, 0.088
708.000, 0.085
708.100, 0.094
708.200, 0.084
708.300, 0.088
708.400, 0.093
708.500, 0.081
708.600, 0.083
708.700, 0.083
708.800, 0.084
708.900, 0.086
709.000, 0.078
709.100, 0.088
709.200, 0.090
709.300, 0.089
709.400, 0.084
709.500, 0.088
709.600, 0.083
709.700, 0.086
709.800, 0.084
709.900, 0.081
710.000, 0.081
710.100, 0.089
710.200, 0.085
710.300, 0.095
710.400, 0.088
710.500, 0.081
710.600, 0.083
710.700, 0.088
710.800, 0.087
710.900, 0.092
711.000, 0.085
711.100, 0.089
711.200, 0.088
711.300, 0.089
711.400, 0.089
711.500, 0.091
711.600, 0.096
711.700, 0.089
711.800, 0.079
711.900, 0.085
712.000, 0.094
712.100, 0.080
712.200, 0.083
712.300, 0.080
712.400, 0.078
712.500, 0.085
712.600, 0.089
712.700, 0.085
712.800, 0.088
712.900, 0.092
713.000, 0.084
713.100, 0.083
713.200, 0.084
713.300, 0.090
713.400, 0.090
713.500, 0.093
713.600, 0.085
713.700, 0.086
713.800, 0.085
713.900, 0.082
714.000, 0.077
714.100, 0.079
714.200, 0.078
714.300, 0.079
714.400, 0.089
714.500, 0.091
714.600, 0.093
714.700, 0.079
714.800, 0.083
714.900, 0.086
715.000, 0.082
715.100, 0.083
715.200, 0.089
715.300, 0.076
715.400, 0.084
715.500, 0.084
715.600, 0.083
715.700, 0.080
715.800, 0.079
715.900, 0.090
716.000, 0.087
716.100, 0.088
716.200, 0.097
716.300, 0.083
716.400, 0.089
716.500, 0.110
716.600, 0.092
716.700, 0.089
716.800, 0.095
716.900, 0.103
717.000, 0.081
717.100, 0.086
717.200, 0.087
717.300, 0.082
717.400, 0.080
717.500, 0.077
717.600, 0.080
717.700, 0.085
717.800, 0.091
717.900, 0.085
718.000, 0.087
718.100, 0.078
718.200, 0.097
718.300, 0.090
718.400, 0.087
718.500, 0.088
718.600, 0.098
718.700, 0.098
718.800, 0.083
718.900, 0.091
719.000, 0.081
719.100, 0.086
719.200, 0.086
719.300, 0.084
719.400, 0.087
719.500, 0.089
719.600, 0.080
719.700, 0.085
719.800, 0.090
719.900, 0.086
720.000, 0.085
720.100, 0.097
720.200, 0.090
720.300, 0.092
720.400, 0.089
720.500, 0.090
720.600, 0.090
720.700, 0.089
720.800, 0.089
720.900, 0.096
721.000, 0.093
721.100, 0.089
721.200, 0.089
721.300, 0.095
721.400, 0.094
721.500, 0.108
721.600, 0.095
721.700, 0.094
721.800, 0.083
721.900, 0.086
722.000, 0.077
722.100, 0.077
722.200, 0.082
722.300, 0.095
722.400, 0.079
722.500, 0.085
722.600, 0.086
722.700, 0.084
722.800, 0.093
722.900, 0.093
723.000, 0.084
723.100, 0.092
723.200, 0.087
723.300, 0.088
723.400, 0.086
723.500, 0.087
723.600, 0.093
723.700, 0.094
723.800, 0.088
723.900, 0.088
724.000, 0.085
724.100, 0.096
724.200, 0.094
724.300, 0.086
724.400, 0.090
724.500, 0.090
724.600, 0.094
724.700, 0.090
724.800, 0.079
724.900, 0.086
725.000, 0.092
725.100, 0.086
725.200, 0.088
725.300, 0.081
725.400, 0.089
725.500, 0.098
725.600, 0.095
725.700, 0.097
725.800, 0.105
725.900, 0.101
726.000, 0.096
726.100, 0.105
726.200, 0.103
726.300, 0.104
726.400, 0.095
726.500, 0.109
726.600, 0.106
726.700, 0.116
726.800, 0.115
726.900, 0.112
727.000, 0.111
727.100, 0.111
727.200, 0.108
727.300, 0.100
727.400, 0.092
727.500, 0.092
727.600, 0.095
727.700, 0.089
727.800, 0.095
727.900, 0.084
728.000, 0.089
728.100, 0.094
728.200, 0.090
728.300, 0.086
728.400, 0.089
728.500, 0.086
728.600, 0.092
728.700, 0.089
728.800, 0.091
728.900, 0.087
729.000, 0.090
729.100, 0.088
729.200, 0.093
729.300, 0.085
729.400, 0.083
729.500, 0.091
729.600, 0.082
729.700, 0.084
729.800, 0.086
729.900, 0.081
730.000, 0.084
730.100, 0.081
730.200, 0.088
730.300, 0.080
730.400, 0.086
730.500, 0.093
730.600, 0.078
730.700, 0.085
730.800, 0.082
730.900, 0.082
731.000, 0.093
731.100, 0.092
731.200, 0.087
731.300, 0.090
731.400, 0.089
731.500, 0.095
731.600, 0.092
731.700, 0.082
731.800, 0.088
731.900, 0.083
732.000, 0.090
732.100, 0.086
732.200, 0.089
732.300, 0.078
732.400, 0.078
732.500, 0.090
732.600, 0.080
732.700, 0.078
732.800, 0.081
732.900, 0.093
733.000, 0.091
733.100, 0.093
733.200, 0.082
733.300, 0.079
733.400, 0.093
733.500, 0.089
733.600, 0.084
733.700, 0.083
733.800, 0.088
733.900, 0.082
734.000, 0.088
734.100, 0.092
734.200, 0.083
734.300, 0.094
734.400, 0.086
734.500, 0.084
734.600, 0.079
734.700, 0.091
734.800, 0.082
734.900, 0.080
735.000, 0.093
735.100, 0.091
735.200, 0.095
735.300, 0.089
735.400, 0.091
735.500, 0.103
735.600, 0.097
735.700, 0.093
735.800, 0.092
735.900, 0.098
736.000, 0.086
736.100, 0.086
736.200, 0.080
736.300, 0.087
736.400, 0.091
736.500, 0.087
736.600, 0.087
736.700, 0.091
736.800, 0.079
736.900, 0.096
737.000, 0.098
737.100, 0.086
737.200, 0.091
737.300, 0.084
737.400, 0.102
737.500, 0.099
737.600, 0.095
737.700, 0.095
737.800, 0.094
737.900, 0.090
738.000, 0.092
738.100, 0.091
738.200, 0.093
738.300, 0.084
738.400, 0.087
738.500, 0.088
738.600, 0.089
738.700, 0.094
738.800, 0.087
738.900, 0.091
739.000, 0.078
739.100, 0.085
739.200, 0.093
739.300, 0.094
739.400, 0.096
739.500, 0.087
739.600, 0.082
739.700, 0.087
739.800, 0.084
739.900, 0.091
740.000, 0.087
740.100, 0.095
740.200, 0.077
740.300, 0.080
740.400, 0.082
740.500, 0.082
740.600, 0.089
740.700, 0.081
740.800, 0.083
740.900, 0.087
741.000, 0.086
741.100, 0.090
741.200, 0.101
741.300, 0.091
741.400, 0.085
741.500, 0.095
741.600, 0.088
741.700, 0.081
741.800, 0.093
741.900, 0.087
742.000, 0.090
742.100, 0.085
742.200, 0.099
742.300, 0.101
742.400, 0.086
742.500, 0.094
742.600, 0.094
742.700, 0.091
742.800, 0.084
742.900, 0.082
743.000, 0.091
743.100, 0.091
743.200, 0.079
743.300, 0.085
743.400, 0.086
743.500, 0.091
743.600, 0.087
743.700, 0.084
743.800, 0.083
743.900, 0.084
744.000, 0.086
744.100, 0.087
744.200, 0.085
744.300, 0.084
744.400, 0.086
744.500, 0.098
744.600, 0.087
744.700, 0.095
744.800, 0.090
744.900, 0.088
745.000, 0.081
745.100, 0.086
745.200, 0.084
745.300, 0.084
745.400, 0.090
745.500, 0.086
745.600, 0.087
745.700, 0.083
745.800, 0.086
745.900, 0.086
746.000, 0.085
746.100, 0.092
746.200, 0.092
746.300, 0.089
746.400, 0.080
746.500, 0.081
746.600, 0.079
746.700, 0.092
746.800, 0.086
746.900, 0.091
747.000, 0.102
747.100, 0.079
747.200, 0.072
747.300, 0.085
747.400, 0.080
747.500, 0.080
747.600, 0.088
747.700, 0.085
747.800, 0.079
747.900, 0.075
748.000, 0.085
748.100, 0.091
748.200, 0.091
748.300, 0.079
748.400, 0.079
748.500, 0.089
748.600, 0.088
748.700, 0.088
748.800, 0.092
748.900, 0.087
749.000, 0.090
749.100, 0.091
749.200, 0.091
749.300, 0.085
749.400, 0.086
749.500, 0.091
749.600, 0.084
749.700, 0.092
749.800, 0.089
749.900, 0.084
750.000, 0.083
750.100, 0.083
750.200, 0.087
750.300, 0.083
750.400, 0.081
750.500, 0.092
750.600, 0.098
750.700, 0.095
750.800, 0.086
750.900, 0.088
751.000, 0.099
751.100, 0.093
751.200, 0.093
751.300, 0.085
751.400, 0.088
751.500, 0.103
751.600, 0.099
751.700, 0.093
751.800, 0.101
751.900, 0.113
752.000, 0.099
752.100, 0.081
752.200, 0.086
752.300, 0.078
752.400, 0.090
752.500, 0.092
752.600, 0.088
752.700, 0.094
752.800, 0.078
752.900, 0.089
753.000, 0.093
753.100, 0.087
753.200, 0.088
753.300, 0.086
753.400, 0.087
753.500, 0.093
753.600, 0.085
753.700, 0.081
753.800, 0.093
753.900, 0.093
754.000, 0.082
754.100, 0.090
754.200, 0.092
754.300, 0.096
754.400, 0.105
754.500, 0.102
754.600, 0.091
754.700, 0.094
754.800, 0.095
754.900, 0.092
755.000, 0.089
755.100, 0.089
755.200, 0.112
755.300, 0.093
755.400, 0.088
755.500, 0.102
755.600, 0.101
755.700, 0.101
755.800, 0.093
755.900, 0.095
756.000, 0.097
756.100, 0.108
756.200, 0.094
756.300, 0.102
756.400, 0.097
756.500, 0.099
756.600, 0.090
756.700, 0.093
756.800, 0.090
756.900, 0.092
757.000, 0.090
757.100, 0.085
757.200, 0.089
757.300, 0.096
757.400, 0.088
757.500, 0.090
757.600, 0.087
757.700, 0.090
757.800, 0.082
757.900, 0.092
758.000, 0.083
758.100, 0.083
758.200, 0.094
758.300, 0.085
758.400, 0.082
758.500, 0.095
758.600, 0.086
758.700, 0.089
758.800, 0.090
758.900, 0.107
759.000, 0.102
759.100, 0.097
759.200, 0.093
759.300, 0.088
759.400, 0.095
759.500, 0.090
759.600, 0.100
759.700, 0.099
759.800, 0.090
759.900, 0.088
760.000, 0.092
760.100, 0.092
760.200, 0.092
760.300, 0.105
760.400, 0.096
760.500, 0.106
760.600, 0.099
760.700, 0.093
760.800, 0.095
760.900, 0.107
761.000, 0.094
761.100, 0.105
761.200, 0.104
761.300, 0.096
761.400, 0.105
761.500, 0.102
761.600, 0.096
761.700, 0.112
761.800, 0.099
761.900, 0.095
762.000, 0.094
762.100, 0.088
762.200, 0.094
762.300, 0.093
762.400, 0.098
762.500, 0.095
762.600, 0.100
762.700, 0.096
762.800, 0.098
762.900, 0.099
763.000, 0.097
763.100, 0.096
763.200, 0.090
763.300, 0.095
763.400, 0.094
763.500, 0.091
763.600, 0.096
763.700, 0.091
763.800, 0.091
763.900, 0.096
764.000, 0.091
764.100, 0.089
764.200, 0.093
764.300, 0.095
764.400, 0.091
764.500, 0.095
764.600, 0.098
764.700, 0.091
764.800, 0.095
764.900, 0.089
765.000, 0.092
765.100, 0.088
765.200, 0.095
765.300, 0.096
765.400, 0.088
765.500, 0.096
765.600, 0.094
765.700, 0.094
765.800, 0.087
765.900, 0.091
766.000, 0.087
766.100, 0.088
766.200, 0.096
766.300, 0.100
766.400, 0.086
766.500, 0.092
766.600, 0.084
766.700, 0.095
766.800, 0.096
766.900, 0.103
767.000, 0.095
767.100, 0.088
767.200, 0.096
767.300, 0.100
767.400, 0.083
767.500, 0.085
767.600, 0.095
767.700, 0.103
767.800, 0.104
767.900, 0.092
768.000, 0.093
768.100, 0.096
768.200, 0.093
768.300, 0.091
768.400, 0.095
768.500, 0.096
768.600, 0.088
768.700, 0.102
768.800, 0.087
768.900, 0.096
769.000, 0.098
769.100, 0.088
769.200, 0.088
769.300, 0.082
769.400, 0.084
769.500, 0.084
769.600, 0.101
769.700, 0.092
769.800, 0.096
769.900, 0.087
770.000, 0.084
770.100, 0.082
770.200, 0.087
770.300, 0.082
770.400, 0.083
770.500, 0.091
770.600, 0.082
770.700, 0.085
770.800, 0.082
770.900, 0.090
771.000, 0.085
771.100, 0.083
771.200, 0.088
771.300, 0.094
771.400, 0.095
771.500, 0.082
771.600, 0.092
771.700, 0.094
771.800, 0.086
771.900, 0.081
772.000, 0.078
772.100, 0.082
772.200, 0.079
772.300, 0.076
772.400, 0.084
772.500, 0.078
772.600, 0.084
772.700, 0.075
772.800, 0.080
772.900, 0.080
773.000, 0.084
773.100, 0.085
773.200, 0.088
773.300, 0.083
773.400, 0.086
773.500, 0.093
773.600, 0.084
773.700, 0.091
773.800, 0.081
773.900, 0.085
774.000, 0.085
774.100, 0.084
774.200, 0.076
774.300, 0.083
774.400, 0.088
774.500, 0.087
774.600, 0.091
774.700, 0.089
774.800, 0.093
774.900, 0.084
775.000, 0.086
775.100, 0.088
775.200, 0.093
775.300, 0.101
775.400, 0.095
775.500, 0.090
775.600, 0.103
775.700, 0.093
775.800, 0.087
775.900, 0.091
776.000, 0.094
776.100, 0.091
776.200, 0.086
776.300, 0.087
776.400, 0.092
776.500, 0.084
776.600, 0.086
776.700, 0.093
776.800, 0.102
776.900, 0.092
777.000, 0.089
777.100, 0.095
777.200, 0.090
777.300, 0.087
777.400, 0.087
777.500, 0.084
777.600, 0.090
777.700, 0.088
777.800, 0.094
777.900, 0.098
778.000, 0.098
778.100, 0.096
778.200, 0.091
778.300, 0.095
778.400, 0.097
778.500, 0.097
778.600, 0.083
778.700, 0.096
778.800, 0.102
778.900, 0.100
779.000, 0.096
779.100, 0.090
779.200, 0.094
779.300, 0.101
779.400, 0.092
779.500, 0.108
779.600, 0.095
779.700, 0.102
779.800, 0.110
779.900, 0.096
780.000, 0.095
780.100, 0.105
780.200, 0.099
780.300, 0.094
780.400, 0.107
780.500, 0.100
780.600, 0.097
780.700, 0.095
780.800, 0.100
780.900, 0.088
781.000, 0.095
781.100, 0.097
781.200, 0.090
781.300, 0.093
781.400, 0.096
781.500, 0.097
781.600, 0.087
781.700, 0.086
781.800, 0.091
781.900, 0.093
782.000, 0.096
782.100, 0.090
782.200, 0.091
782.300, 0.090
782.400, 0.092
782.500, 0.090
782.600, 0.086
782.700, 0.091
782.800, 0.087
782.900, 0.088
783.000, 0.091
783.100, 0.101
783.200, 0.100
783.300, 0.095
783.400, 0.097
783.500, 0.091
783.600, 0.094
783.700, 0.095
783.800, 0.094
783.900, 0.087
784.000, 0.086
784.100, 0.090
784.200, 0.099
784.300, 0.091
784.400, 0.085
784.500, 0.079
784.600, 0.088
784.700, 0.084
784.800, 0.091
784.900, 0.089
785.000, 0.089
785.100, 0.084
785.200, 0.088
785.300, 0.079
785.400, 0.082
785.500, 0.090
785.600, 0.081
785.700, 0.086
785.800, 0.089
785.900, 0.090
786.000, 0.078
786.100, 0.089
786.200, 0.087
786.300, 0.072
786.400, 0.083
786.500, 0.088
786.600, 0.087
786.700, 0.088
786.800, 0.088
786.900, 0.092
787.000, 0.095
787.100, 0.093
787.200, 0.089
787.300, 0.105
787.400, 0.093
787.500, 0.088
787.600, 0.086
787.700, 0.087
787.800, 0.082
787.900, 0.090
788.000, 0.078
788.100, 0.079
788.200, 0.086
788.300, 0.075
788.400, 0.086
788.500, 0.083
788.600, 0.081
788.700, 0.096
788.800, 0.086
788.900, 0.084
789.000, 0.086
789.100, 0.089
789.200, 0.097
789.300, 0.088
789.400, 0.088
789.500, 0.086
789.600, 0.093
789.700, 0.094
789.800, 0.109
789.900, 0.085
790.000, 0.083
790.100, 0.081
790.200, 0.086
790.300, 0.081
790.400, 0.078
790.500, 0.076
790.600, 0.070
790.700, 0.078
790.800, 0.075
790.900, 0.082
791.000, 0.077
791.100, 0.080
791.200, 0.082
791.300, 0.068
791.400, 0.089
791.500, 0.074
791.600, 0.076
791.700, 0.081
791.800, 0.078
791.900, 0.076
792.000, 0.082
792.100, 0.090
792.200, 0.078
792.300, 0.081
792.400, 0.089
792.500, 0.078
792.600, 0.087
792.700, 0.083
792.800, 0.073
792.900, 0.077
793.000, 0.073
793.100, 0.078
793.200, 0.084
793.300, 0.076
793.400, 0.070
793.500, 0.077
793.600, 0.072
793.700, 0.077
793.800, 0.090
793.900, 0.076
794.000, 0.073
794.100, 0.077
794.200, 0.081
794.300, 0.079
794.400, 0.074
794.500, 0.079
794.600, 0.086
794.700, 0.077
794.800, 0.080
794.900, 0.071
795.000, 0.069
795.100, 0.083
795.200, 0.066
795.300, 0.075
795.400, 0.086
795.500, 0.076
795.600, 0.078
795.700, 0.087
795.800, 0.085
795.900, 0.075
796.000, 0.077
796.100, 0.087
796.200, 0.094
796.300, 0.095
796.400, 0.095
796.500, 0.103
796.600, 0.083
796.700, 0.078
796.800, 0.083
796.900, 0.077
797.000, 0.081
797.100, 0.079
797.200, 0.073
797.300, 0.083
797.400, 0.069
797.500, 0.071
797.600, 0.077
797.700, 0.091
797.800, 0.083
797.900, 0.085
798.000, 0.087
798.100, 0.084
798.200, 0.068
798.300, 0.077
798.400, 0.083
798.500, 0.091
798.600, 0.090
798.700, 0.085
798.800, 0.074
798.900, 0.081
799.000, 0.084
799.100, 0.083
799.200, 0.080
799.300, 0.078
799.400, 0.079
799.500, 0.084
799.600, 0.083
799.700, 0.084
799.800, 0.076
799.900, 0.085
800.000, 0.079
800.100, 0.079
800.200, 0.073
800.300, 0.074
800.400, 0.079
800.500, 0.078
800.600, 0.069
800.700, 0.071
800.800, 0.073
800.900, 0.071
801.000, 0.076
801.100, 0.076
801.200, 0.081
801.300, 0.081
801.400, 0.070
801.500, 0.081
801.600, 0.077
801.700, 0.079
801.800, 0.086
801.900, 0.073
802.000, 0.071
802.100, 0.078
802.200, 0.079
802.300, 0.085
802.400, 0.075
802.500, 0.082
802.600, 0.075
802.700, 0.075
802.800, 0.078
802.900, 0.084
803.000, 0.087
803.100, 0.080
803.200, 0.085
803.300, 0.077
803.400, 0.078
803.500, 0.093
803.600, 0.093
803.700, 0.090
803.800, 0.087
803.900, 0.098
804.000, 0.096
804.100, 0.084
804.200, 0.079
804.300, 0.077
804.400, 0.083
804.500, 0.080
804.600, 0.079
804.700, 0.086
804.800, 0.070
804.900, 0.069
805.000, 0.076
805.100, 0.076
805.200, 0.082
805.300, 0.073
805.400, 0.079
805.500, 0.078
805.600, 0.075
805.700, 0.083
805.800, 0.071
805.900, 0.086
806.000, 0.079
806.100, 0.076
806.200, 0.082
806.300, 0.090
806.400, 0.085
806.500, 0.083
806.600, 0.088
806.700, 0.085
806.800, 0.081
806.900, 0.084
807.000, 0.079
807.100, 0.077
807.200, 0.080
807.300, 0.085
807.400, 0.086
807.500, 0.100
807.600, 0.088
807.700, 0.088
807.800, 0.098
807.900, 0.094
808.000, 0.090
808.100, 0.091
808.200, 0.088
808.300, 0.096
808.400, 0.089
808.500, 0.097
808.600, 0.095
808.700, 0.086
808.800, 0.092
808.900, 0.082
809.000, 0.091
809.100, 0.085
809.200, 0.086
809.300, 0.081
809.400, 0.086
809.500, 0.097
809.600, 0.096
809.700, 0.090
809.800, 0.100
809.900, 0.096
810.000, 0.099
810.100, 0.089
810.200, 0.090
810.300, 0.091
810.400, 0.093
810.500, 0.080
810.600, 0.082
810.700, 0.086
810.800, 0.100
810.900, 0.099
811.000, 0.100
811.100, 0.092
811.200, 0.090
811.300, 0.099
811.400, 0.092
811.500, 0.086
811.600, 0.087
811.700, 0.090
811.800, 0.099
811.900, 0.088
812.000, 0.080
812.100, 0.089
812.200, 0.083
812.300, 0.094
812.400, 0.079
812.500, 0.083
812.600, 0.084
812.700, 0.087
812.800, 0.083
812.900, 0.079
813.000, 0.082
813.100, 0.084
813.200, 0.086
813.300, 0.082
813.400, 0.083
813.500, 0.081
813.600, 0.082
813.700, 0.082
813.800, 0.080
813.900, 0.089
814.000, 0.082
814.100, 0.080
814.200, 0.079
814.300, 0.096
814.400, 0.086
814.500, 0.094
814.600, 0.085
814.700, 0.087
814.800, 0.094
814.900, 0.090
815.000, 0.097
815.100, 0.098
815.200, 0.109
815.300, 0.098
815.400, 0.101
815.500, 0.097
815.600, 0.095
815.700, 0.095
815.800, 0.094
815.900, 0.105
816.000, 0.104
816.100, 0.108
816.200, 0.099
816.300, 0.105
816.400, 0.108
816.500, 0.107
816.600, 0.111
816.700, 0.096
816.800, 0.105
816.900, 0.096
817.000, 0.098
817.100, 0.095
817.200, 0.093
817.300, 0.088
817.400, 0.084
817.500, 0.089
817.600, 0.106
817.700, 0.085
817.800, 0.101
817.900, 0.091
818.000, 0.085
818.100, 0.095
818.200, 0.088
818.300, 0.095
818.400, 0.093
818.500, 0.090
818.600, 0.087
818.700, 0.087
818.800, 0.092
818.900, 0.087
819.000, 0.085
819.100, 0.087
819.200, 0.090
819.300, 0.090
819.400, 0.082
819.500, 0.095
819.600, 0.085
819.700, 0.101
819.800, 0.097
819.900, 0.089
820.000, 0.095
820.100, 0.094
820.200, 0.093
820.300, 0.086
820.400, 0.096
820.500, 0.094
820.600, 0.093
820.700, 0.101
820.800, 0.095
820.900, 0.093
821.000, 0.091
821.100, 0.098
821.200, 0.085
821.300, 0.097
821.400, 0.089
821.500, 0.094
821.600, 0.087
821.700, 0.086
821.800, 0.104
821.900, 0.104
822.000, 0.107
822.100, 0.098
822.200, 0.101
822.300, 0.104
822.400, 0.101
822.500, 0.093
822.600, 0.095
822.700, 0.093
822.800, 0.099
822.900, 0.104
823.000, 0.089
823.100, 0.099
823.200, 0.097
823.300, 0.099
823.400, 0.100
823.500, 0.101
823.600, 0.097
823.700, 0.105
823.800, 0.097
823.900, 0.098
824.000, 0.098
824.100, 0.093
824.200, 0.106
824.300, 0.099
824.400, 0.091
824.500, 0.101
824.600, 0.092
824.700, 0.092
824.800, 0.100
824.900, 0.094
825.000, 0.093
825.100, 0.093
825.200, 0.090
825.300, 0.095
825.400, 0.094
825.500, 0.089
825.600, 0.086
825.700, 0.083
825.800, 0.083
825.900, 0.083
826.000, 0.088
826.100, 0.088
826.200, 0.085
826.300, 0.095
826.400, 0.089
826.500, 0.094
826.600, 0.087
826.700, 0.085
826.800, 0.081
826.900, 0.079
827.000, 0.087
827.100, 0.086
827.200, 0.084
827.300, 0.084
827.400, 0.078
827.500, 0.083
827.600, 0.088
827.700, 0.089
827.800, 0.091
827.900, 0.094
828.000, 0.086
828.100, 0.092
828.200, 0.092
828.300, 0.096
828.400, 0.090
828.500, 0.091
828.600, 0.092
828.700, 0.100
828.800, 0.085
828.900, 0.081
829.000, 0.090
829.100, 0.088
829.200, 0.090
829.300, 0.094
829.400, 0.094
829.500, 0.085
829.600, 0.094
829.700, 0.096
829.800, 0.081
829.900, 0.094
830.000, 0.084
830.100, 0.090
830.200, 0.088
830.300, 0.092
830.400, 0.087
830.500, 0.086
830.600, 0.091
830.700, 0.099
830.800, 0.089
830.900, 0.096
831.000, 0.089
831.100, 0.092
831.200, 0.102
831.300, 0.097
831.400, 0.094
831.500, 0.091
831.600, 0.096
831.700, 0.103
831.800, 0.090
831.900, 0.094
832.000, 0.091
832.100, 0.090
832.200, 0.095
832.300, 0.093
832.400, 0.081
832.500, 0.083
832.600, 0.093
832.700, 0.093
832.800, 0.091
832.900, 0.086
833.000, 0.089
833.100, 0.096
833.200, 0.083
833.300, 0.085
833.400, 0.085
833.500, 0.079
833.600, 0.084
833.700, 0.093
833.800, 0.090
833.900, 0.097
834.000, 0.100
834.100, 0.087
834.200, 0.086
834.300, 0.088
834.400, 0.082
834.500, 0.091
834.600, 0.088
834.700, 0.086
834.800, 0.083
834.900, 0.095
835.000, 0.092
835.100, 0.081
835.200, 0.099
835.300, 0.084
835.400, 0.086
835.500, 0.091
835.600, 0.088
835.700, 0.091
835.800, 0.097
835.900, 0.091
836.000, 0.093
836.100, 0.101
836.200, 0.098
836.300, 0.092
836.400, 0.094
836.500, 0.099
836.600, 0.092
836.700, 0.101
836.800, 0.091
836.900, 0.096
837.000, 0.093
837.100, 0.087
837.200, 0.091
837.300, 0.091
837.400, 0.091
837.500, 0.087
837.600, 0.085
837.700, 0.090
837.800, 0.087
837.900, 0.087
838.000, 0.085
838.100, 0.091
838.200, 0.091
838.300, 0.100
838.400, 0.094
838.500, 0.091
838.600, 0.101
838.700, 0.098
838.800, 0.094
838.900, 0.100
839.000, 0.097
839.100, 0.095
839.200, 0.097
839.300, 0.088
839.400, 0.091
839.500, 0.091
839.600, 0.087
839.700, 0.085
839.800, 0.090
839.900, 0.090
840.000, 0.096
840.100, 0.098
840.200, 0.096
840.300, 0.092
840.400, 0.089
840.500, 0.101
840.600, 0.092
840.700, 0.089
840.800, 0.097
840.900, 0.090
841.000, 0.093
841.100, 0.097
841.200, 0.098
841.300, 0.099
841.400, 0.096
841.500, 0.079
841.600, 0.091
841.700, 0.089
841.800, 0.084
841.900, 0.087
842.000, 0.097
842.100, 0.097
842.200, 0.095
842.300, 0.096
842.400, 0.108
842.500, 0.100
842.600, 0.101
842.700, 0.103
842.800, 0.101
842.900, 0.108
843.000, 0.104
843.100, 0.102
843.200, 0.091
843.300, 0.096
843.400, 0.099
843.500, 0.097
843.600, 0.101
843.700, 0.103
843.800, 0.097
843.900, 0.096
844.000, 0.085
844.100, 0.086
844.200, 0.094
844.300, 0.095
844.400, 0.101
844.500, 0.090
844.600, 0.104
844.700, 0.093
844.800, 0.099
844.900, 0.092
845.000, 0.091
845.100, 0.091
845.200, 0.086
845.300, 0.087
845.400, 0.097
845.500, 0.083
845.600, 0.092
845.700, 0.088
845.800, 0.093
845.900, 0.095
846.000, 0.087
846.100, 0.088
846.200, 0.087
846.300, 0.098
846.400, 0.100
846.500, 0.092
846.600, 0.086
846.700, 0.077
846.800, 0.076
846.900, 0.093
847.000, 0.089
847.100, 0.088
847.200, 0.093
847.300, 0.087
847.400, 0.081
847.500, 0.087
847.600, 0.085
847.700, 0.099
847.800, 0.093
847.900, 0.093
848.000, 0.090
848.100, 0.084
848.200, 0.093
848.300, 0.099
848.400, 0.095
848.500, 0.092
848.600, 0.088
848.700, 0.086
848.800, 0.084
848.900, 0.083
849.000, 0.089
849.100, 0.085
849.200, 0.085
849.300, 0.088
849.400, 0.082
849.500, 0.091
849.600, 0.086
849.700, 0.091
849.800, 0.091
849.900, 0.102
850.000, 0.095
850.100, 0.089
850.200, 0.089
850.300, 0.090
850.400, 0.090
850.500, 0.090
850.600, 0.087
850.700, 0.089
850.800, 0.089
850.900, 0.101
851.000, 0.088
851.100, 0.095
851.200, 0.084
851.300, 0.083
851.400, 0.086
851.500, 0.085
851.600, 0.082
851.700, 0.088
851.800, 0.085
851.900, 0.085
852.000, 0.102
852.100, 0.097
852.200, 0.084
852.300, 0.091
852.400, 0.095
852.500, 0.088
852.600, 0.090
852.700, 0.090
852.800, 0.085
852.900, 0.088
853.000, 0.084
853.100, 0.078
853.200, 0.074
853.300, 0.089
853.400, 0.092
853.500, 0.093
853.600, 0.097
853.700, 0.080
853.800, 0.086
853.900, 0.090
854.000, 0.092
854.100, 0.088
854.200, 0.087
854.300, 0.077
854.400, 0.086
854.500, 0.090
854.600, 0.091
854.700, 0.093
854.800, 0.099
854.900, 0.092
855.000, 0.099
855.100, 0.090
855.200, 0.091
855.300, 0.095
855.400, 0.094
855.500, 0.094
855.600, 0.093
855.700, 0.101
855.800, 0.088
855.900, 0.092
856.000, 0.096
856.100, 0.085
856.200, 0.103
856.300, 0.091
856.400, 0.087
856.500, 0.083
856.600, 0.087
856.700, 0.083
856.800, 0.087
856.900, 0.083
857.000, 0.077
857.100, 0.084
857.200, 0.078
857.300, 0.086
857.400, 0.083
857.500, 0.080
857.600, 0.077
857.700, 0.085
857.800, 0.093
857.900, 0.096
858.000, 0.080
858.100, 0.089
858.200, 0.089
858.300, 0.088
858.400, 0.077
858.500, 0.085
858.600, 0.085
858.700, 0.082
858.800, 0.091
858.900, 0.095
859.000, 0.088
859.100, 0.090
859.200, 0.090
859.300, 0.086
859.400, 0.079
859.500, 0.087
859.600, 0.080
859.700, 0.085
859.800, 0.093
859.900, 0.089
860.000, 0.092
860.100, 0.101
860.200, 0.087
860.300, 0.107
860.400, 0.094
860.500, 0.093
860.600, 0.090
860.700, 0.078
860.800, 0.093
860.900, 0.086
861.000, 0.082
861.100, 0.085
861.200, 0.085
861.300, 0.091
861.400, 0.091
861.500, 0.091
861.600, 0.087
861.700, 0.088
861.800, 0.095
861.900, 0.094
862.000, 0.094
862.100, 0.090
862.200, 0.087
862.300, 0.081
862.400, 0.087
862.500, 0.092
862.600, 0.091
862.700, 0.096
862.800, 0.091
862.900, 0.089
863.000, 0.090
863.100, 0.083
863.200, 0.087
863.300, 0.081
863.400, 0.092
863.500, 0.086
863.600, 0.080
863.700, 0.089
863.800, 0.083
863.900, 0.088
864.000, 0.091
864.100, 0.084
864.200, 0.084
864.300, 0.087
864.400, 0.091
864.500, 0.098
864.600, 0.095
864.700, 0.087
864.800, 0.086
864.900, 0.092
865.000, 0.098
865.100, 0.089
865.200, 0.098
865.300, 0.090
865.400, 0.081
865.500, 0.085
865.600, 0.086
865.700, 0.087
865.800, 0.080
865.900, 0.084
866.000, 0.095
866.100, 0.083
866.200, 0.087
866.300, 0.093
866.400, 0.084
866.500, 0.088
866.600, 0.098
866.700, 0.086
866.800, 0.092
866.900, 0.100
867.000, 0.097
867.100, 0.094
867.200, 0.094
867.300, 0.093
867.400, 0.088
867.500, 0.090
867.600, 0.090
867.700, 0.095
867.800, 0.091
867.900, 0.103
868.000, 0.101
868.100, 0.107
868.200, 0.112
868.300, 0.101
868.400, 0.088
868.500, 0.096
868.600, 0.091
868.700, 0.085
868.800, 0.097
868.900, 0.094
869.000, 0.088
869.100, 0.085
869.200, 0.089
869.300, 0.091
869.400, 0.086
869.500, 0.090
869.600, 0.082
869.700, 0.091
869.800, 0.091
869.900, 0.086
870.000, 0.084
870.100, 0.088
870.200, 0.100
870.300, 0.093
870.400, 0.087
870.500, 0.086
870.600, 0.086
870.700, 0.081
870.800, 0.082
870.900, 0.086
871.000, 0.088
871.100, 0.087
871.200, 0.091
871.300, 0.087
871.400, 0.087
871.500, 0.086
871.600, 0.082
871.700, 0.082
871.800, 0.083
871.900, 0.087
872.000, 0.080
872.100, 0.075
872.200, 0.088
872.300, 0.084
872.400, 0.089
872.500, 0.088
872.600, 0.079
872.700, 0.087
872.800, 0.086
872.900, 0.083
873.000, 0.091
873.100, 0.089
873.200, 0.086
873.300, 0.093
873.400, 0.083
873.500, 0.091
873.600, 0.093
873.700, 0.085
873.800, 0.083
873.900, 0.087
874.000, 0.082
874.100, 0.083
874.200, 0.084
874.300, 0.081
874.400, 0.086
874.500, 0.089
874.600, 0.081
874.700, 0.090
874.800, 0.082
874.900, 0.086
875.000, 0.093
875.100, 0.094
875.200, 0.097
875.300, 0.087
875.400, 0.100
875.500, 0.089
875.600, 0.094
875.700, 0.098
875.800, 0.100
875.900, 0.095
876.000, 0.081
876.100, 0.095
876.200, 0.090
876.300, 0.101
876.400, 0.092
876.500, 0.095
876.600, 0.095
876.700, 0.112
876.800, 0.096
876.900, 0.084
877.000, 0.089
877.100, 0.088
877.200, 0.095
877.300, 0.094
877.400, 0.096
877.500, 0.090
877.600, 0.096
877.700, 0.094
877.800, 0.091
877.900, 0.098
878.000, 0.100
878.100, 0.103
878.200, 0.091
878.300, 0.094
878.400, 0.087
878.500, 0.090
878.600, 0.093
878.700, 0.096
878.800, 0.097
878.900, 0.102
879.000, 0.099
879.100, 0.108
879.200, 0.104
879.300, 0.092
879.400, 0.095
879.500, 0.099
879.600, 0.104
879.700, 0.095
879.800, 0.099
879.900, 0.085
880.000, 0.095
880.100, 0.099
880.200, 0.090
880.300, 0.100
880.400, 0.115
880.500, 0.118
880.600, 0.113
880.700, 0.117
880.800, 0.118
880.900, 0.108
881.000, 0.102
881.100, 0.097
881.200, 0.106
881.300, 0.109
881.400, 0.124
881.500, 0.113
881.600, 0.109
881.700, 0.113
881.800, 0.107
881.900, 0.108
882.000, 0.127
882.100, 0.119
882.200, 0.118
882.300, 0.135
882.400, 0.132
882.500, 0.137
882.600, 0.131
882.700, 0.132
882.800, 0.137
882.900, 0.137
883.000, 0.138
883.100, 0.145
883.200, 0.145
883.300, 0.141
883.400, 0.148
883.500, 0.156
883.600, 0.151
883.700, 0.150
883.800, 0.148
883.900, 0.142
884.000, 0.138
884.100, 0.133
884.200, 0.132
884.300, 0.126
884.400, 0.137
884.500, 0.136
884.600, 0.140
884.700, 0.131
884.800, 0.120
884.900, 0.111
885.000, 0.107
885.100, 0.116
885.200, 0.125
885.300, 0.115
885.400, 0.112
885.500, 0.107
885.600, 0.104
885.700, 0.107
885.800, 0.103
885.900, 0.111
886.000, 0.099
886.100, 0.101
886.200, 0.099
886.300, 0.107
886.400, 0.106
886.500, 0.102
886.600, 0.103
886.700, 0.117
886.800, 0.103
886.900, 0.103
887.000, 0.101
887.100, 0.104
887.200, 0.096
887.300, 0.107
887.400, 0.093
887.500, 0.092
887.600, 0.092
887.700, 0.099
887.800, 0.105
887.900, 0.115
888.000, 0.112
888.100, 0.115
888.200, 0.108
888.300, 0.093
888.400, 0.099
888.500, 0.097
888.600, 0.100
888.700, 0.108
888.800, 0.101
888.900, 0.102
889.000, 0.098
889.100, 0.105
889.200, 0.104
889.300, 0.103
889.400, 0.103
889.500, 0.089
889.600, 0.109
889.700, 0.119
889.800, 0.111
889.900, 0.106
890.000, 0.123
890.100, 0.109
890.200, 0.113
890.300, 0.111
890.400, 0.114
890.500, 0.111
890.600, 0.115
890.700, 0.105
890.800, 0.131
890.900, 0.104
891.000, 0.094
891.100, 0.095
891.200, 0.110
891.300, 0.107
891.400, 0.104
891.500, 0.114
891.600, 0.117
891.700, 0.118
891.800, 0.110
891.900, 0.106
892.000, 0.112
892.100, 0.118
892.200, 0.132
892.300, 0.118
892.400, 0.118
892.500, 0.125
892.600, 0.122
892.700, 0.125
892.800, 0.126
892.900, 0.120
893.000, 0.123
893.100, 0.117
893.200, 0.111
893.300, 0.113
893.400, 0.114
893.500, 0.107
893.600, 0.106
893.700, 0.107
893.800, 0.115
893.900, 0.111
894.000, 0.104
894.100, 0.108
894.200, 0.105
894.300, 0.103
894.400, 0.108
894.500, 0.118
894.600, 0.116
894.700, 0.120
894.800, 0.124
894.900, 0.108
895.000, 0.106
895.100, 0.115
895.200, 0.114
895.300, 0.114
895.400, 0.113
895.500, 0.121
895.600, 0.115
895.700, 0.120
895.800, 0.123
895.900, 0.112
896.000, 0.117
896.100, 0.132
896.200, 0.136
896.300, 0.132
896.400, 0.125
896.500, 0.142
896.600, 0.145
896.700, 0.143
896.800, 0.142
896.900, 0.151
897.000, 0.138
897.100, 0.140
897.200, 0.124
897.300, 0.125
897.400, 0.125
897.500, 0.129
897.600, 0.132
897.700, 0.136
897.800, 0.132
897.900, 0.144
898.000, 0.143
898.100, 0.128
898.200, 0.135
898.300, 0.139
898.400, 0.133
898.500, 0.139
898.600, 0.131
898.700, 0.137
898.800, 0.128
898.900, 0.147
899.000, 0.125
899.100, 0.124
899.200, 0.126
899.300, 0.132
899.400, 0.136
899.500, 0.135
899.600, 0.136
899.700, 0.136
899.800, 0.131
899.900, 0.126
900.000, 0.126
900.100, 0.128
900.200, 0.124
900.300, 0.142
900.400, 0.128
900.500, 0.127
900.600, 0.130
900.700, 0.133
900.800, 0.139
900.900, 0.120
901.000, 0.126
901.100, 0.141
901.200, 0.130
901.300, 0.133
901.400, 0.130
901.500, 0.126
901.600, 0.132
901.700, 0.133
901.800, 0.133
901.900, 0.130
902.000, 0.135
902.100, 0.134
902.200, 0.128
902.300, 0.136
902.400, 0.123
902.500, 0.131
902.600, 0.127
902.700, 0.127
902.800, 0.135
902.900, 0.143
903.000, 0.142
903.100, 0.144
903.200, 0.147
903.300, 0.150
903.400, 0.151
903.500, 0.155
903.600, 0.149
903.700, 0.141
903.800, 0.138
903.900, 0.156
904.000, 0.145
904.100, 0.128
904.200, 0.140
904.300, 0.155
904.400, 0.142
904.500, 0.130
904.600, 0.136
904.700, 0.127
904.800, 0.131
904.900, 0.124
905.000, 0.137
905.100, 0.132
905.200, 0.136
905.300, 0.134
905.400, 0.130
905.500, 0.122
905.600, 0.143
905.700, 0.143
905.800, 0.136
905.900, 0.125
906.000, 0.133
906.100, 0.138
906.200, 0.139
906.300, 0.137
906.400, 0.138
906.500, 0.133
906.600, 0.134
906.700, 0.148
906.800, 0.133
906.900, 0.148
907.000, 0.135
907.100, 0.134
907.200, 0.134
907.300, 0.134
907.400, 0.129
907.500, 0.136
907.600, 0.137
907.700, 0.137
907.800, 0.130
907.900, 0.134
908.000, 0.132
908.100, 0.132
908.200, 0.132
908.300, 0.128
908.400, 0.134
908.500, 0.123
908.600, 0.126
908.700, 0.136
908.800, 0.140
908.900, 0.132
909.000, 0.134
909.100, 0.132
909.200, 0.137
909.300, 0.137
909.400, 0.127
909.500, 0.129
909.600, 0.128
909.700, 0.139
909.800, 0.127
909.900, 0.133
910.000, 0.125
910.100, 0.141
910.200, 0.131
910.300, 0.139
910.400, 0.134
910.500, 0.135
910.600, 0.132
910.700, 0.135
910.800, 0.130
910.900, 0.139
911.000, 0.124
911.100, 0.121
911.200, 0.138
911.300, 0.134
911.400, 0.142
911.500, 0.134
911.600, 0.143
911.700, 0.135
911.800, 0.141
911.900, 0.142
912.000, 0.140
912.100, 0.142
912.200, 0.130
912.300, 0.134
912.400, 0.140
912.500, 0.137
912.600, 0.124
912.700, 0.135
912.800, 0.131
912.900, 0.136
913.000, 0.136
913.100, 0.137
913.200, 0.138
913.300, 0.139
913.400, 0.134
913.500, 0.137
913.600, 0.140
913.700, 0.137
913.800, 0.134
913.900, 0.147
914.000, 0.138
914.100, 0.139
914.200, 0.137
914.300, 0.140
914.400, 0.129
914.500, 0.126
914.600, 0.134
914.700, 0.136
914.800, 0.138
914.900, 0.137
915.000, 0.146
915.100, 0.135
915.200, 0.123
915.300, 0.138
915.400, 0.139
915.500, 0.140
915.600, 0.138
915.700, 0.145
915.800, 0.139
915.900, 0.147
916.000, 0.142
916.100, 0.145
916.200, 0.147
916.300, 0.153
916.400, 0.143
916.500, 0.146
916.600, 0.144
916.700, 0.129
916.800, 0.134
916.900, 0.135
917.000, 0.139
917.100, 0.134
917.200, 0.133
917.300, 0.139
917.400, 0.135
917.500, 0.131
917.600, 0.142
917.700, 0.146
917.800, 0.131
917.900, 0.121
918.000, 0.132
918.100, 0.143
918.200, 0.144
918.300, 0.142
918.400, 0.137
918.500, 0.145
918.600, 0.144
918.700, 0.139
918.800, 0.128
918.900, 0.143
919.000, 0.143
919.100, 0.152
919.200, 0.143
919.300, 0.147
919.400, 0.144
919.500, 0.139
919.600, 0.146
919.700, 0.144
919.800, 0.147
919.900, 0.146
920.000, 0.132
920.100, 0.132
920.200, 0.121
920.300, 0.117
920.400, 0.132
920.500, 0.134
920.600, 0.131
920.700, 0.130
920.800, 0.124
920.900, 0.140
921.000, 0.134
921.100, 0.141
921.200, 0.145
921.300, 0.136
921.400, 0.128
921.500, 0.144
921.600, 0.146
921.700, 0.153
921.800, 0.154
921.900, 0.156
922.000, 0.149
922.100, 0.153
922.200, 0.141
922.300, 0.123
922.400, 0.130
922.500, 0.144
922.600, 0.141
922.700, 0.137
922.800, 0.140
922.900, 0.141
923.000, 0.139
923.100, 0.139
923.200, 0.122
923.300, 0.131
923.400, 0.133
923.500, 0.131
923.600, 0.127
923.700, 0.134
923.800, 0.122
923.900, 0.138
924.000, 0.134
924.100, 0.149
924.200, 0.144
924.300, 0.153
924.400, 0.140
924.500, 0.134
924.600, 0.147
924.700, 0.147
924.800, 0.151
924.900, 0.135
925.000, 0.128
925.100, 0.126
925.200, 0.146
925.300, 0.142
925.400, 0.146
925.500, 0.136
925.600, 0.147
925.700, 0.152
925.800, 0.142
925.900, 0.123
926.000, 0.139
926.100, 0.145
926.200, 0.136
926.300, 0.120
926.400, 0.133
926.500, 0.134
926.600, 0.144
926.700, 0.134
926.800, 0.128
926.900, 0.123
927.000, 0.114
927.100, 0.107
927.200, 0.122
927.300, 0.123
927.400, 0.117
927.500, 0.115
927.600, 0.129
927.700, 0.126
927.800, 0.142
927.900, 0.142
928.000, 0.142
928.100, 0.139
928.200, 0.139
928.300, 0.118
928.400, 0.107
928.500, 0.116
928.600, 0.110
928.700, 0.134
928.800, 0.126
928.900, 0.120
929.000, 0.136
929.100, 0.142
929.200, 0.139
929.300, 0.129
929.400, 0.123
929.500, 0.126
929.600, 0.124
929.700, 0.127
929.800, 0.124
929.900, 0.124
930.000, 0.128
930.100, 0.144
930.200, 0.129
930.300, 0.130
930.400, 0.134
930.500, 0.141
930.600, 0.146
930.700, 0.139
930.800, 0.121
930.900, 0.117
931.000, 0.121
931.100, 0.126
931.200, 0.113
931.300, 0.121
931.400, 0.125
931.500, 0.120
931.600, 0.120
931.700, 0.122
931.800, 0.111
931.900, 0.105
932.000, 0.118
932.100, 0.111
932.200, 0.112
932.300, 0.116
932.400, 0.130
932.500, 0.119
932.600, 0.123
932.700, 0.131
932.800, 0.130
932.900, 0.116
933.000, 0.118
933.100, 0.127
933.200, 0.136
933.300, 0.125
933.400, 0.142
933.500, 0.134
933.600, 0.135
933.700, 0.150
933.800, 0.137
933.900, 0.125
934.000, 0.131
934.100, 0.134
934.200, 0.132
934.300, 0.134
934.400, 0.130
934.500, 0.120
934.600, 0.123
934.700, 0.126
934.800, 0.127
934.900, 0.113
935.000, 0.108
935.100, 0.110
935.200, 0.109
935.300, 0.106
935.400, 0.102
935.500, 0.109
935.600, 0.108
935.700, 0.100
935.800, 0.112
935.900, 0.110
936.000, 0.104
936.100, 0.093
936.200, 0.090
936.300, 0.095
936.400, 0.095
936.500, 0.097
936.600, 0.095
936.700, 0.094
936.800, 0.115
936.900, 0.108
937.000, 0.104
937.100, 0.099
937.200, 0.099
937.300, 0.097
937.400, 0.100
937.500, 0.099
937.600, 0.096
937.700, 0.089
937.800, 0.085
937.900, 0.097
938.000, 0.094
938.100, 0.091
938.200, 0.097
938.300, 0.094
938.400, 0.099
938.500, 0.091
938.600, 0.096
938.700, 0.102
938.800, 0.105
938.900, 0.115
939.000, 0.099
939.100, 0.095
939.200, 0.102
939.300, 0.102
939.400, 0.099
939.500, 0.103
939.600, 0.104
939.700, 0.101
939.800, 0.106
939.900, 0.106
940.000, 0.109
940.100, 0.091
940.200, 0.097
940.300, 0.096
940.400, 0.100
940.500, 0.102
940.600, 0.113
940.700, 0.111
940.800, 0.102
940.900, 0.099
941.000, 0.094
941.100, 0.099
941.200, 0.106
941.300, 0.107
941.400, 0.104
941.500, 0.101
941.600, 0.102
941.700, 0.101
941.800, 0.100
941.900, 0.101
942.000, 0.102
942.100, 0.102
942.200, 0.097
942.300, 0.096
942.400, 0.093
942.500, 0.097
942.600, 0.098
942.700, 0.100
942.800, 0.099
942.900, 0.095
943.000, 0.113
943.100, 0.111
943.200, 0.096
943.300, 0.102
943.400, 0.092
943.500, 0.103
943.600, 0.099
943.700, 0.093
943.800, 0.091
943.900, 0.096
944.000, 0.107
944.100, 0.101
944.200, 0.098
944.300, 0.103
944.400, 0.102
944.500, 0.089
944.600, 0.096
944.700, 0.095
944.800, 0.100
944.900, 0.097
945.000, 0.092
945.100, 0.097
945.200, 0.093
945.300, 0.104
945.400, 0.088
945.500, 0.096
945.600, 0.096
945.700, 0.100
945.800, 0.092
945.900, 0.092
946.000, 0.095
946.100, 0.097
946.200, 0.106
946.300, 0.109
946.400, 0.102
946.500, 0.102
946.600, 0.102
946.700, 0.091
946.800, 0.098
946.900, 0.112
947.000, 0.102
947.100, 0.091
947.200, 0.093
947.300, 0.084
947.400, 0.087
947.500, 0.087
947.600, 0.085
947.700, 0.095
947.800, 0.091
947.900, 0.086
948.000, 0.095
948.100, 0.095
948.200, 0.099
948.300, 0.100
948.400, 0.092
948.500, 0.098
948.600, 0.103
948.700, 0.100
948.800, 0.093
948.900, 0.098
949.000, 0.093
949.100, 0.098
949.200, 0.099
949.300, 0.101
949.400, 0.099
949.500, 0.095
949.600, 0.093
949.700, 0.094
949.800, 0.095
949.900, 0.090
950.000, 0.095
950.100, 0.093
950.200, 0.091
950.300, 0.092
950.400, 0.090
950.500, 0.090
950.600, 0.094
950.700, 0.099
950.800, 0.100
950.900, 0.098
951.000, 0.095
951.100, 0.095
951.200, 0.096
951.300, 0.105
951.400, 0.100
951.500, 0.094
951.600, 0.095
951.700, 0.104
951.800, 0.103
951.900, 0.098
952.000, 0.093
952.100, 0.099
952.200, 0.102
952.300, 0.090
952.400, 0.083
952.500, 0.096
952.600, 0.090
952.700, 0.097
952.800, 0.089
952.900, 0.091
953.000, 0.090
953.100, 0.097
953.200, 0.090
953.300, 0.095
953.400, 0.086
953.500, 0.095
953.600, 0.101
953.700, 0.093
953.800, 0.087
953.900, 0.084
954.000, 0.090
954.100, 0.089
954.200, 0.080
954.300, 0.075
954.400, 0.083
954.500, 0.078
954.600, 0.087
954.700, 0.085
954.800, 0.086
954.900, 0.074
955.000, 0.084
955.100, 0.084
955.200, 0.082
955.300, 0.083
955.400, 0.078
955.500, 0.079
955.600, 0.082
955.700, 0.073
955.800, 0.077
955.900, 0.083
956.000, 0.080
956.100, 0.081
956.200, 0.085
956.300, 0.088
956.400, 0.093
956.500, 0.088
956.600, 0.087
956.700, 0.088
956.800, 0.087
956.900, 0.085
957.000, 0.078
957.100, 0.080
957.200, 0.079
957.300, 0.079
957.400, 0.082
957.500, 0.079
957.600, 0.083
957.700, 0.077
957.800, 0.079
957.900, 0.078
958.000, 0.078
958.100, 0.082
958.200, 0.084
958.300, 0.082
958.400, 0.081
958.500, 0.084
958.600, 0.076
958.700, 0.073
958.800, 0.079
958.900, 0.078
959.000, 0.080
959.100, 0.082
959.200, 0.088
959.300, 0.088
959.400, 0.076
959.500, 0.075
959.600, 0.082
959.700, 0.084
959.800, 0.085
959.900, 0.084
960.000, 0.086
960.100, 0.082
960.200, 0.078
960.300, 0.085
960.400, 0.091
960.500, 0.088
960.600, 0.093
960.700, 0.085
960.800, 0.084
960.900, 0.085
961.000, 0.102
961.100, 0.084
961.200, 0.081
961.300, 0.079
961.400, 0.089
961.500, 0.086
961.600, 0.093
961.700, 0.102
961.800, 0.095
961.900, 0.087
962.000, 0.084
962.100, 0.080
962.200, 0.088
962.300, 0.093
962.400, 0.080
962.500, 0.088
962.600, 0.081
962.700, 0.087
962.800, 0.091
962.900, 0.087
963.000, 0.083
963.100, 0.085
963.200, 0.083
963.300, 0.085
963.400, 0.093
963.500, 0.096
963.600, 0.092
963.700, 0.093
963.800, 0.094
963.900, 0.090
964.000, 0.092
964.100, 0.088
964.200, 0.090
964.300, 0.085
964.400, 0.092
964.500, 0.092
964.600, 0.088
964.700, 0.083
964.800, 0.077
964.900, 0.085
965.000, 0.085
965.100, 0.082
965.200, 0.081
965.300, 0.084
965.400, 0.075
965.500, 0.083
965.600, 0.080
965.700, 0.086
965.800, 0.082
965.900, 0.079
966.000, 0.083
966.100, 0.093
966.200, 0.082
966.300, 0.080
966.400, 0.083
966.500, 0.087
966.600, 0.088
966.700, 0.078
966.800, 0.082
966.900, 0.089
967.000, 0.080
967.100, 0.083
967.200, 0.079
967.300, 0.086
967.400, 0.081
967.500, 0.079
967.600, 0.085
967.700, 0.083
967.800, 0.087
967.900, 0.078
968.000, 0.079
968.100, 0.082
968.200, 0.092
968.300, 0.086
968.400, 0.087
968.500, 0.080
968.600, 0.092
968.700, 0.084
968.800, 0.088
968.900, 0.085
969.000, 0.083
969.100, 0.087
969.200, 0.085
969.300, 0.086
969.400, 0.089
969.500, 0.091
969.600, 0.090
969.700, 0.099
969.800, 0.089
969.900, 0.080
970.000, 0.087
970.100, 0.090
970.200, 0.083
970.300, 0.096
970.400, 0.084
970.500, 0.091
970.600, 0.086
970.700, 0.093
970.800, 0.090
970.900, 0.089
971.000, 0.088
971.100, 0.086
971.200, 0.084
971.300, 0.085
971.400, 0.095
971.500, 0.099
971.600, 0.086
971.700, 0.084
971.800, 0.088
971.900, 0.083
972.000, 0.089
972.100, 0.093
972.200, 0.102
972.300, 0.107
972.400, 0.089
972.500, 0.098
972.600, 0.093
972.700, 0.093
972.800, 0.095
972.900, 0.087
973.000, 0.094
973.100, 0.090
973.200, 0.095
973.300, 0.090
973.400, 0.090
973.500, 0.085
973.600, 0.085
973.700, 0.098
973.800, 0.092
973.900, 0.087
974.000, 0.087
974.100, 0.092
974.200, 0.078
974.300, 0.086
974.400, 0.088
974.500, 0.090
974.600, 0.091
974.700, 0.081
974.800, 0.100
974.900, 0.095
975.000, 0.092
975.100, 0.091
975.200, 0.095
975.300, 0.100
975.400, 0.084
975.500, 0.087
975.600, 0.089
975.700, 0.082
975.800, 0.078
975.900, 0.080
976.000, 0.093
976.100, 0.091
976.200, 0.089
976.300, 0.089
976.400, 0.089
976.500, 0.089
976.600, 0.091
976.700, 0.088
976.800, 0.085
976.900, 0.086
977.000, 0.096
977.100, 0.086
977.200, 0.078
977.300, 0.086
977.400, 0.080
977.500, 0.084
977.600, 0.080
977.700, 0.075
977.800, 0.080
977.900, 0.081
978.000, 0.083
978.100, 0.086
978.200, 0.074
978.300, 0.087
978.400, 0.080
978.500, 0.082
978.600, 0.078
978.700, 0.086
978.800, 0.087
978.900, 0.080
979.000, 0.080
979.100, 0.081
979.200, 0.081
979.300, 0.079
979.400, 0.076
979.500, 0.076
979.600, 0.087
979.700, 0.085
979.800, 0.081
979.900, 0.089
980.000, 0.087
980.100, 0.090
980.200, 0.086
980.300, 0.085
980.400, 0.084
980.500, 0.084
980.600, 0.074
980.700, 0.083
980.800, 0.086
980.900, 0.085
981.000, 0.081
981.100, 0.080
981.200, 0.084
981.300, 0.082
981.400, 0.081
981.500, 0.086
981.600, 0.086
981.700, 0.073
981.800, 0.070
981.900, 0.076
982.000, 0.080
982.100, 0.078
982.200, 0.077
982.300, 0.082
982.400, 0.085
982.500, 0.079
982.600, 0.080
982.700, 0.080
982.800, 0.083
982.900, 0.077
983.000, 0.081
983.100, 0.085
983.200, 0.084
983.300, 0.080
983.400, 0.081
983.500, 0.083
983.600, 0.078
983.700, 0.079
983.800, 0.081
983.900, 0.081
984.000, 0.079
984.100, 0.086
984.200, 0.085
984.300, 0.083
984.400, 0.084
984.500, 0.078
984.600, 0.078
984.700, 0.089
984.800, 0.086
984.900, 0.081
985.000, 0.085
985.100, 0.083
985.200, 0.073
985.300, 0.084
985.400, 0.072
985.500, 0.083
985.600, 0.082
985.700, 0.075
985.800, 0.081
985.900, 0.070
986.000, 0.078
986.100, 0.091
986.200, 0.084
986.300, 0.091
986.400, 0.084
986.500, 0.075
986.600, 0.080
986.700, 0.075
986.800, 0.077
986.900, 0.086
987.000, 0.080
987.100, 0.077
987.200, 0.083
987.300, 0.075
987.400, 0.084
987.500, 0.076
987.600, 0.083
987.700, 0.085
987.800, 0.087
987.900, 0.082
988.000, 0.077
988.100, 0.079
988.200, 0.089
988.300, 0.080
988.400, 0.088
988.500, 0.082
988.600, 0.085
988.700, 0.083
988.800, 0.079
988.900, 0.084
989.000, 0.086
989.100, 0.086
989.200, 0.078
989.300, 0.085
989.400, 0.073
989.500, 0.077
989.600, 0.072
989.700, 0.074
989.800, 0.072
989.900, 0.077
990.000, 0.085
990.100, 0.077
990.200, 0.086
990.300, 0.087
990.400, 0.093
990.500, 0.081
990.600, 0.083
990.700, 0.076
990.800, 0.077
990.900, 0.072
991.000, 0.072
991.100, 0.074
991.200, 0.074
991.300, 0.079
991.400, 0.074
991.500, 0.072
991.600, 0.081
991.700, 0.078
991.800, 0.070
991.900, 0.075
992.000, 0.073
992.100, 0.075
992.200, 0.077
992.300, 0.082
992.400, 0.083
992.500, 0.072
992.600, 0.079
992.700, 0.083
992.800, 0.074
992.900, 0.070
993.000, 0.076
993.100, 0.080
993.200, 0.081
993.300, 0.071
993.400, 0.085
993.500, 0.082
993.600, 0.085
993.700, 0.102
993.800, 0.092
993.900, 0.092
994.000, 0.085
994.100, 0.083
994.200, 0.076
994.300, 0.090
994.400, 0.080
994.500, 0.073
994.600, 0.068
994.700, 0.075
994.800, 0.079
994.900, 0.076
995.000, 0.076
995.100, 0.074
995.200, 0.079
995.300, 0.082
995.400, 0.077
995.500, 0.080
995.600, 0.078
995.700, 0.082
995.800, 0.085
995.900, 0.074
996.000, 0.074
996.100, 0.080
996.200, 0.074
996.300, 0.079
996.400, 0.081
996.500, 0.079
996.600, 0.079
996.700, 0.074
996.800, 0.075
996.900, 0.082
997.000, 0.088
997.100, 0.081
997.200, 0.073
997.300, 0.068
997.400, 0.069
997.500, 0.077
997.600, 0.075
997.700, 0.073
997.800, 0.084
997.900, 0.077
998.000, 0.068
998.100, 0.069
998.200, 0.077
998.300, 0.077
998.400, 0.075
998.500, 0.080
998.600, 0.074
998.700, 0.070
998.800, 0.071
998.900, 0.073
999.000, 0.078
999.100, 0.072
999.200, 0.066
999.300, 0.066
999.400, 0.056
999.500, 0.072
999.600, 0.060
999.700, 0.065
999.800, 0.059
999.900, 0.008
1000.000, 0.001
