Time (ps), RMSD (nm)
0.000, 0.001
0.100, 0.094
0.200, 0.086
0.300, 0.091
0.400, 0.084
0.500, 0.092
0.600, 0.093
0.700, 0.090
0.800, 0.092
0.900, 0.092
1.000, 0.115
1.100, 0.105
1.200, 0.094
1.300, 0.093
1.400, 0.091
1.500, 0.096
1.600, 0.091
1.700, 0.079
1.800, 0.096
1.900, 0.103
2.000, 0.093
2.100, 0.092
2.200, 0.081
2.300, 0.088
2.400, 0.088
2.500, 0.085
2.600, 0.090
2.700, 0.096
2.800, 0.086
2.900, 0.095
3.000, 0.096
3.100, 0.093
3.200, 0.093
3.300, 0.088
3.400, 0.095
3.500, 0.097
3.600, 0.102
3.700, 0.108
3.800, 0.096
3.900, 0.112
4.000, 0.109
4.100, 0.097
4.200, 0.105
4.300, 0.106
4.400, 0.094
4.500, 0.091
4.600, 0.091
4.700, 0.083
4.800, 0.088
4.900, 0.090
5.000, 0.086
5.100, 0.091
5.200, 0.080
5.300, 0.082
5.400, 0.089
5.500, 0.081
5.600, 0.081
5.700, 0.084
5.800, 0.092
5.900, 0.094
6.000, 0.090
6.100, 0.088
6.200, 0.085
6.300, 0.093
6.400, 0.086
6.500, 0.086
6.600, 0.088
6.700, 0.087
6.800, 0.082
6.900, 0.090
7.000, 0.094
7.100, 0.086
7.200, 0.089
7.300, 0.084
7.400, 0.099
7.500, 0.080
7.600, 0.086
7.700, 0.091
7.800, 0.093
7.900, 0.093
8.000, 0.104
8.100, 0.088
8.200, 0.088
8.300, 0.095
8.400, 0.094
8.500, 0.104
8.600, 0.094
8.700, 0.087
8.800, 0.094
8.900, 0.100
9.000, 0.089
9.100, 0.089
9.200, 0.096
9.300, 0.099
9.400, 0.087
9.500, 0.088
9.600, 0.095
9.700, 0.096
9.800, 0.087
9.900, 0.107
10.000, 0.096
10.100, 0.101
10.200, 0.097
10.300, 0.105
10.400, 0.096
10.500, 0.100
10.600, 0.098
10.700, 0.109
10.800, 0.094
10.900, 0.087
11.000, 0.095
11.100, 0.085
11.200, 0.092
11.300, 0.092
11.400, 0.090
11.500, 0.101
11.600, 0.102
11.700, 0.098
11.800, 0.098
11.900, 0.092
12.000, 0.101
12.100, 0.092
12.200, 0.096
12.300, 0.104
12.400, 0.096
12.500, 0.106
12.600, 0.098
12.700, 0.099
12.800, 0.103
12.900, 0.096
13.000, 0.096
13.100, 0.095
13.200, 0.094
13.300, 0.088
13.400, 0.098
13.500, 0.105
13.600, 0.101
13.700, 0.089
13.800, 0.091
13.900, 0.101
14.000, 0.096
14.100, 0.096
14.200, 0.093
14.300, 0.091
14.400, 0.104
14.500, 0.101
14.600, 0.100
14.700, 0.107
14.800, 0.093
14.900, 0.094
15.000, 0.088
15.100, 0.094
15.200, 0.101
15.300, 0.106
15.400, 0.104
15.500, 0.095
15.600, 0.104
15.700, 0.090
15.800, 0.098
15.900, 0.104
16.000, 0.092
16.100, 0.096
16.200, 0.090
16.300, 0.102
16.400, 0.083
16.500, 0.092
16.600, 0.095
16.700, 0.085
16.800, 0.085
16.900, 0.086
17.000, 0.088
17.100, 0.091
17.200, 0.095
17.300, 0.092
17.400, 0.089
17.500, 0.090
17.600, 0.086
17.700, 0.092
17.800, 0.086
17.900, 0.092
18.000, 0.098
18.100, 0.086
18.200, 0.092
18.300, 0.089
18.400, 0.105
18.500, 0.098
18.600, 0.095
18.700, 0.097
18.800, 0.102
18.900, 0.102
19.000, 0.099
19.100, 0.090
19.200, 0.093
19.300, 0.086
19.400, 0.094
19.500, 0.096
19.600, 0.109
19.700, 0.102
19.800, 0.098
19.900, 0.097
20.000, 0.104
20.100, 0.103
20.200, 0.106
20.300, 0.100
20.400, 0.092
20.500, 0.099
20.600, 0.094
20.700, 0.094
20.800, 0.091
20.900, 0.106
21.000, 0.111
21.100, 0.099
21.200, 0.100
21.300, 0.111
21.400, 0.103
21.500, 0.116
21.600, 0.105
21.700, 0.107
21.800, 0.102
21.900, 0.106
22.000, 0.101
22.100, 0.092
22.200, 0.099
22.300, 0.097
22.400, 0.098
22.500, 0.100
22.600, 0.093
22.700, 0.109
22.800, 0.090
22.900, 0.094
23.000, 0.088
23.100, 0.094
23.200, 0.103
23.300, 0.082
23.400, 0.073
23.500, 0.095
23.600, 0.085
23.700, 0.079
23.800, 0.073
23.900, 0.085
24.000, 0.079
24.100, 0.089
24.200, 0.082
24.300, 0.091
24.400, 0.111
24.500, 0.092
24.600, 0.089
24.700, 0.090
24.800, 0.101
24.900, 0.102
25.000, 0.096
25.100, 0.097
25.200, 0.088
25.300, 0.091
25.400, 0.087
25.500, 0.080
25.600, 0.086
25.700, 0.077
25.800, 0.083
25.900, 0.083
26.000, 0.093
26.100, 0.095
26.200, 0.090
26.300, 0.097
26.400, 0.101
26.500, 0.084
26.600, 0.086
26.700, 0.083
26.800, 0.089
26.900, 0.086
27.000, 0.103
27.100, 0.086
27.200, 0.085
27.300, 0.086
27.400, 0.083
27.500, 0.089
27.600, 0.089
27.700, 0.085
27.800, 0.088
27.900, 0.098
28.000, 0.093
28.100, 0.087
28.200, 0.093
28.300, 0.090
28.400, 0.095
28.500, 0.088
28.600, 0.091
28.700, 0.084
28.800, 0.092
28.900, 0.098
29.000, 0.100
29.100, 0.108
29.200, 0.102
29.300, 0.097
29.400, 0.097
29.500, 0.101
29.600, 0.100
29.700, 0.095
29.800, 0.089
29.900, 0.085
30.000, 0.091
30.100, 0.099
30.200, 0.104
30.300, 0.094
30.400, 0.103
30.500, 0.100
30.600, 0.105
30.700, 0.105
30.800, 0.096
30.900, 0.106
31.000, 0.098
31.100, 0.117
31.200, 0.111
31.300, 0.117
31.400, 0.113
31.500, 0.114
31.600, 0.110
31.700, 0.107
31.800, 0.101
31.900, 0.110
32.000, 0.107
32.100, 0.115
32.200, 0.112
32.300, 0.104
32.400, 0.098
32.500, 0.083
32.600, 0.093
32.700, 0.102
32.800, 0.092
32.900, 0.097
33.000, 0.082
33.100, 0.089
33.200, 0.088
33.300, 0.087
33.400, 0.089
33.500, 0.084
33.600, 0.092
33.700, 0.088
33.800, 0.085
33.900, 0.095
34.000, 0.089
34.100, 0.089
34.200, 0.090
34.300, 0.085
34.400, 0.090
34.500, 0.090
34.600, 0.093
34.700, 0.101
34.800, 0.096
34.900, 0.093
35.000, 0.084
35.100, 0.092
35.200, 0.090
35.300, 0.088
35.400, 0.094
35.500, 0.089
35.600, 0.089
35.700, 0.087
35.800, 0.093
35.900, 0.093
36.000, 0.093
36.100, 0.091
36.200, 0.094
36.300, 0.088
36.400, 0.087
36.500, 0.083
36.600, 0.082
36.700, 0.088
36.800, 0.096
36.900, 0.099
37.000, 0.093
37.100, 0.091
37.200, 0.094
37.300, 0.097
37.400, 0.096
37.500, 0.090
37.600, 0.092
37.700, 0.094
37.800, 0.086
37.900, 0.083
38.000, 0.090
38.100, 0.093
38.200, 0.094
38.300, 0.088
38.400, 0.091
38.500, 0.102
38.600, 0.088
38.700, 0.092
38.800, 0.091
38.900, 0.077
39.000, 0.080
39.100, 0.089
39.200, 0.093
39.300, 0.086
39.400, 0.089
39.500, 0.085
39.600, 0.083
39.700, 0.093
39.800, 0.088
39.900, 0.101
40.000, 0.091
40.100, 0.084
40.200, 0.092
40.300, 0.081
40.400, 0.085
40.500, 0.098
40.600, 0.091
40.700, 0.088
40.800, 0.080
40.900, 0.083
41.000, 0.095
41.100, 0.101
41.200, 0.096
41.300, 0.088
41.400, 0.091
41.500, 0.093
41.600, 0.089
41.700, 0.095
41.800, 0.093
41.900, 0.089
42.000, 0.096
42.100, 0.086
42.200, 0.081
42.300, 0.088
42.400, 0.092
42.500, 0.082
42.600, 0.091
42.700, 0.083
42.800, 0.086
42.900, 0.087
43.000, 0.078
43.100, 0.085
43.200, 0.084
43.300, 0.087
43.400, 0.086
43.500, 0.094
43.600, 0.090
43.700, 0.088
43.800, 0.083
43.900, 0.091
44.000, 0.081
44.100, 0.082
44.200, 0.089
44.300, 0.077
44.400, 0.082
44.500, 0.086
44.600, 0.085
44.700, 0.095
44.800, 0.085
44.900, 0.096
45.000, 0.090
45.100, 0.089
45.200, 0.085
45.300, 0.090
45.400, 0.092
45.500, 0.102
45.600, 0.085
45.700, 0.085
45.800, 0.091
45.900, 0.088
46.000, 0.096
46.100, 0.085
46.200, 0.093
46.300, 0.095
46.400, 0.092
46.500, 0.093
46.600, 0.094
46.700, 0.090
46.800, 0.097
46.900, 0.102
47.000, 0.090
47.100, 0.096
47.200, 0.099
47.300, 0.083
47.400, 0.087
47.500, 0.086
47.600, 0.088
47.700, 0.085
47.800, 0.085
47.900, 0.084
48.000, 0.085
48.100, 0.083
48.200, 0.087
48.300, 0.096
48.400, 0.087
48.500, 0.095
48.600, 0.089
48.700, 0.093
48.800, 0.087
48.900, 0.087
49.000, 0.097
49.100, 0.106
49.200, 0.097
49.300, 0.094
49.400, 0.084
49.500, 0.092
49.600, 0.095
49.700, 0.099
49.800, 0.086
49.900, 0.090
50.000, 0.090
50.100, 0.095
50.200, 0.097
50.300, 0.093
50.400, 0.095
50.500, 0.097
50.600, 0.104
50.700, 0.106
50.800, 0.110
50.900, 0.095
51.000, 0.097
51.100, 0.107
51.200, 0.095
51.300, 0.108
51.400, 0.108
51.500, 0.091
51.600, 0.097
51.700, 0.098
51.800, 0.095
51.900, 0.087
52.000, 0.106
52.100, 0.086
52.200, 0.087
52.300, 0.097
52.400, 0.096
52.500, 0.094
52.600, 0.099
52.700, 0.092
52.800, 0.096
52.900, 0.093
53.000, 0.096
53.100, 0.111
53.200, 0.095
53.300, 0.087
53.400, 0.102
53.500, 0.091
53.600, 0.092
53.700, 0.097
53.800, 0.086
53.900, 0.113
54.000, 0.099
54.100, 0.095
54.200, 0.105
54.300, 0.109
54.400, 0.099
54.500, 0.107
54.600, 0.095
54.700, 0.097
54.800, 0.092
54.900, 0.105
55.000, 0.105
55.100, 0.103
55.200, 0.098
55.300, 0.107
55.400, 0.105
55.500, 0.099
55.600, 0.098
55.700, 0.098
55.800, 0.104
55.900, 0.108
56.000, 0.098
56.100, 0.107
56.200, 0.101
56.300, 0.096
56.400, 0.099
56.500, 0.106
56.600, 0.103
56.700, 0.098
56.800, 0.097
56.900, 0.094
57.000, 0.093
57.100, 0.101
57.200, 0.094
57.300, 0.097
57.400, 0.092
57.500, 0.097
57.600, 0.101
57.700, 0.097
57.800, 0.093
57.900, 0.101
58.000, 0.102
58.100, 0.103
58.200, 0.098
58.300, 0.107
58.400, 0.107
58.500, 0.108
58.600, 0.100
58.700, 0.102
58.800, 0.107
58.900, 0.102
59.000, 0.099
59.100, 0.098
59.200, 0.096
59.300, 0.107
59.400, 0.104
59.500, 0.096
59.600, 0.093
59.700, 0.092
59.800, 0.107
59.900, 0.087
60.000, 0.091
60.100, 0.102
60.200, 0.089
60.300, 0.092
60.400, 0.100
60.500, 0.090
60.600, 0.095
60.700, 0.100
60.800, 0.087
60.900, 0.093
61.000, 0.088
61.100, 0.096
61.200, 0.093
61.300, 0.097
61.400, 0.098
61.500, 0.100
61.600, 0.098
61.700, 0.107
61.800, 0.092
61.900, 0.095
62.000, 0.098
62.100, 0.096
62.200, 0.091
62.300, 0.093
62.400, 0.093
62.500, 0.104
62.600, 0.094
62.700, 0.099
62.800, 0.095
62.900, 0.106
63.000, 0.102
63.100, 0.119
63.200, 0.098
63.300, 0.099
63.400, 0.102
63.500, 0.098
63.600, 0.099
63.700, 0.095
63.800, 0.102
63.900, 0.108
64.000, 0.101
64.100, 0.100
64.200, 0.097
64.300, 0.103
64.400, 0.101
64.500, 0.100
64.600, 0.101
64.700, 0.098
64.800, 0.098
64.900, 0.100
65.000, 0.092
65.100, 0.093
65.200, 0.088
65.300, 0.099
65.400, 0.098
65.500, 0.092
65.600, 0.092
65.700, 0.093
65.800, 0.100
65.900, 0.089
66.000, 0.084
66.100, 0.093
66.200, 0.091
66.300, 0.098
66.400, 0.098
66.500, 0.098
66.600, 0.097
66.700, 0.103
66.800, 0.110
66.900, 0.096
67.000, 0.093
67.100, 0.107
67.200, 0.098
67.300, 0.097
67.400, 0.100
67.500, 0.096
67.600, 0.106
67.700, 0.098
67.800, 0.105
67.900, 0.102
68.000, 0.097
68.100, 0.096
68.200, 0.100
68.300, 0.090
68.400, 0.096
68.500, 0.096
68.600, 0.098
68.700, 0.094
68.800, 0.092
68.900, 0.094
69.000, 0.094
69.100, 0.096
69.200, 0.094
69.300, 0.088
69.400, 0.094
69.500, 0.099
69.600, 0.093
69.700, 0.102
69.800, 0.105
69.900, 0.096
70.000, 0.098
70.100, 0.098
70.200, 0.103
70.300, 0.102
70.400, 0.099
70.500, 0.097
70.600, 0.099
70.700, 0.107
70.800, 0.107
70.900, 0.105
71.000, 0.101
71.100, 0.103
71.200, 0.100
71.300, 0.108
71.400, 0.102
71.500, 0.101
71.600, 0.099
71.700, 0.101
71.800, 0.101
71.900, 0.115
72.000, 0.098
72.100, 0.095
72.200, 0.103
72.300, 0.096
72.400, 0.095
72.500, 0.109
72.600, 0.105
72.700, 0.098
72.800, 0.106
72.900, 0.096
73.000, 0.100
73.100, 0.095
73.200, 0.092
73.300, 0.104
73.400, 0.100
73.500, 0.109
73.600, 0.101
73.700, 0.101
73.800, 0.091
73.900, 0.100
74.000, 0.104
74.100, 0.100
74.200, 0.103
74.300, 0.101
74.400, 0.097
74.500, 0.091
74.600, 0.097
74.700, 0.094
74.800, 0.101
74.900, 0.100
75.000, 0.102
75.100, 0.098
75.200, 0.101
75.300, 0.096
75.400, 0.101
75.500, 0.105
75.600, 0.093
75.700, 0.106
75.800, 0.108
75.900, 0.104
76.000, 0.090
76.100, 0.099
76.200, 0.091
76.300, 0.086
76.400, 0.100
76.500, 0.099
76.600, 0.106
76.700, 0.088
76.800, 0.095
76.900, 0.091
77.000, 0.105
77.100, 0.095
77.200, 0.088
77.300, 0.091
77.400, 0.094
77.500, 0.092
77.600, 0.089
77.700, 0.091
77.800, 0.086
77.900, 0.086
78.000, 0.095
78.100, 0.094
78.200, 0.097
78.300, 0.088
78.400, 0.094
78.500, 0.082
78.600, 0.087
78.700, 0.083
78.800, 0.097
78.900, 0.098
79.000, 0.085
79.100, 0.095
79.200, 0.094
79.300, 0.105
79.400, 0.093
79.500, 0.097
79.600, 0.103
79.700, 0.100
79.800, 0.090
79.900, 0.096
80.000, 0.091
80.100, 0.093
80.200, 0.090
80.300, 0.090
80.400, 0.094
80.500, 0.094
80.600, 0.098
80.700, 0.091
80.800, 0.092
80.900, 0.099
81.000, 0.093
81.100, 0.099
81.200, 0.097
81.300, 0.093
81.400, 0.091
81.500, 0.094
81.600, 0.102
81.700, 0.109
81.800, 0.097
81.900, 0.095
82.000, 0.100
82.100, 0.106
82.200, 0.101
82.300, 0.105
82.400, 0.093
82.500, 0.107
82.600, 0.096
82.700, 0.106
82.800, 0.098
82.900, 0.114
83.000, 0.096
83.100, 0.107
83.200, 0.101
83.300, 0.095
83.400, 0.100
83.500, 0.101
83.600, 0.087
83.700, 0.094
83.800, 0.099
83.900, 0.099
84.000, 0.096
84.100, 0.090
84.200, 0.088
84.300, 0.090
84.400, 0.097
84.500, 0.090
84.600, 0.085
84.700, 0.087
84.800, 0.088
84.900, 0.087
85.000, 0.094
85.100, 0.098
85.200, 0.097
85.300, 0.091
85.400, 0.088
85.500, 0.098
85.600, 0.087
85.700, 0.098
85.800, 0.095
85.900, 0.095
86.000, 0.100
86.100, 0.102
86.200, 0.103
86.300, 0.117
86.400, 0.105
86.500, 0.111
86.600, 0.101
86.700, 0.091
86.800, 0.108
86.900, 0.107
87.000, 0.111
87.100, 0.107
87.200, 0.101
87.300, 0.097
87.400, 0.099
87.500, 0.095
87.600, 0.098
87.700, 0.093
87.800, 0.092
87.900, 0.108
88.000, 0.094
88.100, 0.100
88.200, 0.094
88.300, 0.092
88.400, 0.090
88.500, 0.086
88.600, 0.094
88.700, 0.101
88.800, 0.105
88.900, 0.105
89.000, 0.105
89.100, 0.111
89.200, 0.115
89.300, 0.098
89.400, 0.090
89.500, 0.099
89.600, 0.100
89.700, 0.102
89.800, 0.093
89.900, 0.096
90.000, 0.096
90.100, 0.097
90.200, 0.102
90.300, 0.098
90.400, 0.098
90.500, 0.098
90.600, 0.105
90.700, 0.101
90.800, 0.091
90.900, 0.110
91.000, 0.101
91.100, 0.103
91.200, 0.088
91.300, 0.100
91.400, 0.101
91.500, 0.089
91.600, 0.102
91.700, 0.090
91.800, 0.089
91.900, 0.093
92.000, 0.100
92.100, 0.094
92.200, 0.092
92.300, 0.096
92.400, 0.091
92.500, 0.087
92.600, 0.099
92.700, 0.096
92.800, 0.093
92.900, 0.091
93.000, 0.096
93.100, 0.101
93.200, 0.098
93.300, 0.088
93.400, 0.086
93.500, 0.094
93.600, 0.095
93.700, 0.090
93.800, 0.093
93.900, 0.085
94.000, 0.091
94.100, 0.088
94.200, 0.093
94.300, 0.079
94.400, 0.087
94.500, 0.092
94.600, 0.088
94.700, 0.094
94.800, 0.087
94.900, 0.091
95.000, 0.091
95.100, 0.090
95.200, 0.087
95.300, 0.092
95.400, 0.089
95.500, 0.097
95.600, 0.089
95.700, 0.083
95.800, 0.097
95.900, 0.093
96.000, 0.086
96.100, 0.100
96.200, 0.094
96.300, 0.095
96.400, 0.104
96.500, 0.097
96.600, 0.098
96.700, 0.104
96.800, 0.094
96.900, 0.101
97.000, 0.100
97.100, 0.103
97.200, 0.098
97.300, 0.112
97.400, 0.100
97.500, 0.104
97.600, 0.092
97.700, 0.097
97.800, 0.090
97.900, 0.095
98.000, 0.086
98.100, 0.093
98.200, 0.092
98.300, 0.090
98.400, 0.090
98.500, 0.101
98.600, 0.087
98.700, 0.087
98.800, 0.081
98.900, 0.088
99.000, 0.091
99.100, 0.097
99.200, 0.088
99.300, 0.086
99.400, 0.102
99.500, 0.088
99.600, 0.096
99.700, 0.081
99.800, 0.083
99.900, 0.081
100.000, 0.079
100.100, 0.084
100.200, 0.087
100.300, 0.088
100.400, 0.096
100.500, 0.084
100.600, 0.085
100.700, 0.096
100.800, 0.101
100.900, 0.099
101.000, 0.090
101.100, 0.098
101.200, 0.102
101.300, 0.107
101.400, 0.100
101.500, 0.099
101.600, 0.097
101.700, 0.089
101.800, 0.091
101.900, 0.092
102.000, 0.092
102.100, 0.100
102.200, 0.100
102.300, 0.100
102.400, 0.106
102.500, 0.097
102.600, 0.092
102.700, 0.085
102.800, 0.093
102.900, 0.097
103.000, 0.098
103.100, 0.087
103.200, 0.090
103.300, 0.093
103.400, 0.086
103.500, 0.094
103.600, 0.100
103.700, 0.092
103.800, 0.092
103.900, 0.089
104.000, 0.096
104.100, 0.096
104.200, 0.095
104.300, 0.099
104.400, 0.100
104.500, 0.093
104.600, 0.097
104.700, 0.093
104.800, 0.093
104.900, 0.093
105.000, 0.100
105.100, 0.109
105.200, 0.107
105.300, 0.096
105.400, 0.099
105.500, 0.102
105.600, 0.092
105.700, 0.099
105.800, 0.094
105.900, 0.091
106.000, 0.093
106.100, 0.097
106.200, 0.102
106.300, 0.097
106.400, 0.105
106.500, 0.098
106.600, 0.096
106.700, 0.097
106.800, 0.100
106.900, 0.088
107.000, 0.098
107.100, 0.108
107.200, 0.099
107.300, 0.108
107.400, 0.104
107.500, 0.101
107.600, 0.109
107.700, 0.111
107.800, 0.096
107.900, 0.108
108.000, 0.102
108.100, 0.102
108.200, 0.107
108.300, 0.110
108.400, 0.102
108.500, 0.112
108.600, 0.107
108.700, 0.102
108.800, 0.096
108.900, 0.107
109.000, 0.096
109.100, 0.098
109.200, 0.097
109.300, 0.106
109.400, 0.100
109.500, 0.106
109.600, 0.098
109.700, 0.094
109.800, 0.102
109.900, 0.095
110.000, 0.095
110.100, 0.094
110.200, 0.100
110.300, 0.091
110.400, 0.102
110.500, 0.096
110.600, 0.098
110.700, 0.096
110.800, 0.090
110.900, 0.095
111.000, 0.085
111.100, 0.089
111.200, 0.095
111.300, 0.086
111.400, 0.086
111.500, 0.088
111.600, 0.080
111.700, 0.079
111.800, 0.080
111.900, 0.077
112.000, 0.078
112.100, 0.085
112.200, 0.092
112.300, 0.085
112.400, 0.079
112.500, 0.085
112.600, 0.085
112.700, 0.087
112.800, 0.084
112.900, 0.088
113.000, 0.085
113.100, 0.093
113.200, 0.087
113.300, 0.086
113.400, 0.093
113.500, 0.081
113.600, 0.084
113.700, 0.086
113.800, 0.087
113.900, 0.091
114.000, 0.092
114.100, 0.081
114.200, 0.083
114.300, 0.094
114.400, 0.084
114.500, 0.086
114.600, 0.088
114.700, 0.086
114.800, 0.080
114.900, 0.094
115.000, 0.080
115.100, 0.082
115.200, 0.088
115.300, 0.085
115.400, 0.086
115.500, 0.082
115.600, 0.081
115.700, 0.087
115.800, 0.098
115.900, 0.080
116.000, 0.091
116.100, 0.095
116.200, 0.083
116.300, 0.084
116.400, 0.084
116.500, 0.083
116.600, 0.079
116.700, 0.080
116.800, 0.083
116.900, 0.080
117.000, 0.085
117.100, 0.084
117.200, 0.084
117.300, 0.094
117.400, 0.080
117.500, 0.089
117.600, 0.089
117.700, 0.090
117.800, 0.084
117.900, 0.090
118.000, 0.088
118.100, 0.083
118.200, 0.091
118.300, 0.087
118.400, 0.095
118.500, 0.104
118.600, 0.096
118.700, 0.106
118.800, 0.092
118.900, 0.094
119.000, 0.093
119.100, 0.093
119.200, 0.086
119.300, 0.096
119.400, 0.087
119.500, 0.095
119.600, 0.081
119.700, 0.094
119.800, 0.088
119.900, 0.085
120.000, 0.092
120.100, 0.095
120.200, 0.097
120.300, 0.090
120.400, 0.091
120.500, 0.082
120.600, 0.091
120.700, 0.083
120.800, 0.089
120.900, 0.094
121.000, 0.087
121.100, 0.094
121.200, 0.087
121.300, 0.087
121.400, 0.091
121.500, 0.088
121.600, 0.091
121.700, 0.084
121.800, 0.089
121.900, 0.092
122.000, 0.090
122.100, 0.090
122.200, 0.090
122.300, 0.091
122.400, 0.080
122.500, 0.096
122.600, 0.091
122.700, 0.091
122.800, 0.086
122.900, 0.091
123.000, 0.079
123.100, 0.087
123.200, 0.083
123.300, 0.090
123.400, 0.087
123.500, 0.089
123.600, 0.084
123.700, 0.080
123.800, 0.087
123.900, 0.105
124.000, 0.087
124.100, 0.083
124.200, 0.084
124.300, 0.085
124.400, 0.085
124.500, 0.089
124.600, 0.091
124.700, 0.091
124.800, 0.084
124.900, 0.087
125.000, 0.089
125.100, 0.088
125.200, 0.088
125.300, 0.079
125.400, 0.085
125.500, 0.082
125.600, 0.085
125.700, 0.089
125.800, 0.094
125.900, 0.094
126.000, 0.099
126.100, 0.093
126.200, 0.101
126.300, 0.088
126.400, 0.092
126.500, 0.082
126.600, 0.084
126.700, 0.086
126.800, 0.090
126.900, 0.095
127.000, 0.085
127.100, 0.088
127.200, 0.085
127.300, 0.094
127.400, 0.085
127.500, 0.095
127.600, 0.086
127.700, 0.089
127.800, 0.092
127.900, 0.091
128.000, 0.091
128.100, 0.096
128.200, 0.093
128.300, 0.093
128.400, 0.083
128.500, 0.085
128.600, 0.090
128.700, 0.084
128.800, 0.089
128.900, 0.095
129.000, 0.082
129.100, 0.088
129.200, 0.080
129.300, 0.099
129.400, 0.100
129.500, 0.079
129.600, 0.087
129.700, 0.094
129.800, 0.095
129.900, 0.088
130.000, 0.090
130.100, 0.095
130.200, 0.092
130.300, 0.086
130.400, 0.095
130.500, 0.096
130.600, 0.093
130.700, 0.090
130.800, 0.095
130.900, 0.096
131.000, 0.101
131.100, 0.100
131.200, 0.098
131.300, 0.101
131.400, 0.093
131.500, 0.093
131.600, 0.099
131.700, 0.095
131.800, 0.089
131.900, 0.093
132.000, 0.092
132.100, 0.094
132.200, 0.094
132.300, 0.097
132.400, 0.098
132.500, 0.097
132.600, 0.089
132.700, 0.089
132.800, 0.090
132.900, 0.098
133.000, 0.095
133.100, 0.103
133.200, 0.098
133.300, 0.092
133.400, 0.093
133.500, 0.090
133.600, 0.096
133.700, 0.099
133.800, 0.101
133.900, 0.089
134.000, 0.092
134.100, 0.094
134.200, 0.092
134.300, 0.097
134.400, 0.096
134.500, 0.098
134.600, 0.108
134.700, 0.102
134.800, 0.098
134.900, 0.091
135.000, 0.091
135.100, 0.095
135.200, 0.091
135.300, 0.097
135.400, 0.091
135.500, 0.093
135.600, 0.099
135.700, 0.104
135.800, 0.097
135.900, 0.091
136.000, 0.093
136.100, 0.097
136.200, 0.101
136.300, 0.086
136.400, 0.096
136.500, 0.093
136.600, 0.096
136.700, 0.109
136.800, 0.100
136.900, 0.098
137.000, 0.097
137.100, 0.093
137.200, 0.092
137.300, 0.095
137.400, 0.083
137.500, 0.088
137.600, 0.100
137.700, 0.092
137.800, 0.093
137.900, 0.089
138.000, 0.094
138.100, 0.096
138.200, 0.093
138.300, 0.093
138.400, 0.096
138.500, 0.093
138.600, 0.092
138.700, 0.095
138.800, 0.101
138.900, 0.095
139.000, 0.094
139.100, 0.103
139.200, 0.097
139.300, 0.102
139.400, 0.098
139.500, 0.089
139.600, 0.097
139.700, 0.096
139.800, 0.088
139.900, 0.094
140.000, 0.103
140.100, 0.087
140.200, 0.094
140.300, 0.091
140.400, 0.096
140.500, 0.095
140.600, 0.100
140.700, 0.098
140.800, 0.099
140.900, 0.090
141.000, 0.096
141.100, 0.093
141.200, 0.083
141.300, 0.096
141.400, 0.096
141.500, 0.098
141.600, 0.098
141.700, 0.100
141.800, 0.083
141.900, 0.098
142.000, 0.108
142.100, 0.096
142.200, 0.102
142.300, 0.101
142.400, 0.099
142.500, 0.103
142.600, 0.100
142.700, 0.100
142.800, 0.096
142.900, 0.094
143.000, 0.099
143.100, 0.104
143.200, 0.100
143.300, 0.096
143.400, 0.100
143.500, 0.101
143.600, 0.095
143.700, 0.096
143.800, 0.099
143.900, 0.100
144.000, 0.100
144.100, 0.098
144.200, 0.103
144.300, 0.102
144.400, 0.094
144.500, 0.098
144.600, 0.102
144.700, 0.093
144.800, 0.097
144.900, 0.097
145.000, 0.095
145.100, 0.086
145.200, 0.092
145.300, 0.096
145.400, 0.089
145.500, 0.092
145.600, 0.091
145.700, 0.092
145.800, 0.095
145.900, 0.089
146.000, 0.094
146.100, 0.091
146.200, 0.096
146.300, 0.087
146.400, 0.099
146.500, 0.097
146.600, 0.092
146.700, 0.095
146.800, 0.098
146.900, 0.098
147.000, 0.100
147.100, 0.098
147.200, 0.101
147.300, 0.100
147.400, 0.097
147.500, 0.093
147.600, 0.097
147.700, 0.108
147.800, 0.105
147.900, 0.101
148.000, 0.094
148.100, 0.087
148.200, 0.102
148.300, 0.086
148.400, 0.096
148.500, 0.091
148.600, 0.105
148.700, 0.092
148.800, 0.090
148.900, 0.097
149.000, 0.095
149.100, 0.093
149.200, 0.107
149.300, 0.094
149.400, 0.102
149.500, 0.100
149.600, 0.101
149.700, 0.101
149.800, 0.115
149.900, 0.107
150.000, 0.107
150.100, 0.099
150.200, 0.100
150.300, 0.092
150.400, 0.096
150.500, 0.096
150.600, 0.101
150.700, 0.104
150.800, 0.092
150.900, 0.095
151.000, 0.104
151.100, 0.097
151.200, 0.092
151.300, 0.091
151.400, 0.103
151.500, 0.095
151.600, 0.092
151.700, 0.092
151.800, 0.095
151.900, 0.089
152.000, 0.098
152.100, 0.096
152.200, 0.100
152.300, 0.103
152.400, 0.096
152.500, 0.093
152.600, 0.099
152.700, 0.104
152.800, 0.092
152.900, 0.089
153.000, 0.092
153.100, 0.101
153.200, 0.100
153.300, 0.095
153.400, 0.102
153.500, 0.102
153.600, 0.106
153.700, 0.098
153.800, 0.099
153.900, 0.106
154.000, 0.097
154.100, 0.100
154.200, 0.097
154.300, 0.099
154.400, 0.107
154.500, 0.094
154.600, 0.096
154.700, 0.099
154.800, 0.095
154.900, 0.092
155.000, 0.095
155.100, 0.099
155.200, 0.099
155.300, 0.093
155.400, 0.110
155.500, 0.102
155.600, 0.099
155.700, 0.097
155.800, 0.099
155.900, 0.093
156.000, 0.091
156.100, 0.100
156.200, 0.093
156.300, 0.111
156.400, 0.102
156.500, 0.109
156.600, 0.099
156.700, 0.099
156.800, 0.093
156.900, 0.098
157.000, 0.098
157.100, 0.096
157.200, 0.109
157.300, 0.111
157.400, 0.106
157.500, 0.099
157.600, 0.109
157.700, 0.104
157.800, 0.104
157.900, 0.107
158.000, 0.097
158.100, 0.100
158.200, 0.107
158.300, 0.113
158.400, 0.115
158.500, 0.108
158.600, 0.107
158.700, 0.108
158.800, 0.098
158.900, 0.099
159.000, 0.104
159.100, 0.100
159.200, 0.101
159.300, 0.103
159.400, 0.100
159.500, 0.104
159.600, 0.108
159.700, 0.104
159.800, 0.090
159.900, 0.114
160.000, 0.099
160.100, 0.100
160.200, 0.102
160.300, 0.100
160.400, 0.096
160.500, 0.097
160.600, 0.094
160.700, 0.092
160.800, 0.103
160.900, 0.097
161.000, 0.098
161.100, 0.101
161.200, 0.105
161.300, 0.096
161.400, 0.106
161.500, 0.105
161.600, 0.107
161.700, 0.100
161.800, 0.103
161.900, 0.097
162.000, 0.099
162.100, 0.106
162.200, 0.107
162.300, 0.105
162.400, 0.102
162.500, 0.102
162.600, 0.100
162.700, 0.093
162.800, 0.101
162.900, 0.106
163.000, 0.103
163.100, 0.102
163.200, 0.104
163.300, 0.098
163.400, 0.104
163.500, 0.101
163.600, 0.100
163.700, 0.099
163.800, 0.100
163.900, 0.101
164.000, 0.096
164.100, 0.109
164.200, 0.103
164.300, 0.103
164.400, 0.103
164.500, 0.104
164.600, 0.099
164.700, 0.100
164.800, 0.101
164.900, 0.099
165.000, 0.107
165.100, 0.109
165.200, 0.101
165.300, 0.098
165.400, 0.095
165.500, 0.093
165.600, 0.106
165.700, 0.102
165.800, 0.106
165.900, 0.114
166.000, 0.102
166.100, 0.097
166.200, 0.096
166.300, 0.096
166.400, 0.101
166.500, 0.105
166.600, 0.099
166.700, 0.094
166.800, 0.099
166.900, 0.098
167.000, 0.096
167.100, 0.096
167.200, 0.095
167.300, 0.099
167.400, 0.093
167.500, 0.099
167.600, 0.094
167.700, 0.098
167.800, 0.090
167.900, 0.094
168.000, 0.098
168.100, 0.101
168.200, 0.105
168.300, 0.104
168.400, 0.101
168.500, 0.098
168.600, 0.103
168.700, 0.098
168.800, 0.100
168.900, 0.102
169.000, 0.095
169.100, 0.097
169.200, 0.094
169.300, 0.100
169.400, 0.102
169.500, 0.104
169.600, 0.093
169.700, 0.104
169.800, 0.099
169.900, 0.107
170.000, 0.113
170.100, 0.103
170.200, 0.105
170.300, 0.101
170.400, 0.104
170.500, 0.101
170.600, 0.103
170.700, 0.101
170.800, 0.110
170.900, 0.097
171.000, 0.102
171.100, 0.107
171.200, 0.105
171.300, 0.099
171.400, 0.100
171.500, 0.097
171.600, 0.099
171.700, 0.102
171.800, 0.105
171.900, 0.102
172.000, 0.096
172.100, 0.102
172.200, 0.097
172.300, 0.101
172.400, 0.101
172.500, 0.116
172.600, 0.110
172.700, 0.105
172.800, 0.110
172.900, 0.104
173.000, 0.109
173.100, 0.105
173.200, 0.101
173.300, 0.108
173.400, 0.110
173.500, 0.112
173.600, 0.107
173.700, 0.109
173.800, 0.104
173.900, 0.098
174.000, 0.105
174.100, 0.094
174.200, 0.104
174.300, 0.107
174.400, 0.108
174.500, 0.110
174.600, 0.105
174.700, 0.113
174.800, 0.109
174.900, 0.105
175.000, 0.103
175.100, 0.105
175.200, 0.104
175.300, 0.106
175.400, 0.115
175.500, 0.103
175.600, 0.106
175.700, 0.100
175.800, 0.109
175.900, 0.111
176.000, 0.111
176.100, 0.109
176.200, 0.115
176.300, 0.116
176.400, 0.115
176.500, 0.110
176.600, 0.119
176.700, 0.113
176.800, 0.112
176.900, 0.104
177.000, 0.105
177.100, 0.109
177.200, 0.102
177.300, 0.109
177.400, 0.096
177.500, 0.098
177.600, 0.107
177.700, 0.105
177.800, 0.112
177.900, 0.108
178.000, 0.105
178.100, 0.108
178.200, 0.107
178.300, 0.105
178.400, 0.112
178.500, 0.110
178.600, 0.114
178.700, 0.102
178.800, 0.107
178.900, 0.108
179.000, 0.101
179.100, 0.108
179.200, 0.106
179.300, 0.103
179.400, 0.100
179.500, 0.111
179.600, 0.113
179.700, 0.111
179.800, 0.104
179.900, 0.105
180.000, 0.100
180.100, 0.107
180.200, 0.096
180.300, 0.101
180.400, 0.105
180.500, 0.108
180.600, 0.102
180.700, 0.111
180.800, 0.112
180.900, 0.111
181.000, 0.105
181.100, 0.098
181.200, 0.097
181.300, 0.094
181.400, 0.106
181.500, 0.102
181.600, 0.098
181.700, 0.100
181.800, 0.097
181.900, 0.096
182.000, 0.093
182.100, 0.099
182.200, 0.093
182.300, 0.099
182.400, 0.101
182.500, 0.106
182.600, 0.106
182.700, 0.101
182.800, 0.097
182.900, 0.095
183.000, 0.097
183.100, 0.097
183.200, 0.101
183.300, 0.097
183.400, 0.101
183.500, 0.098
183.600, 0.110
183.700, 0.106
183.800, 0.109
183.900, 0.110
184.000, 0.105
184.100, 0.106
184.200, 0.098
184.300, 0.102
184.400, 0.103
184.500, 0.099
184.600, 0.100
184.700, 0.095
184.800, 0.105
184.900, 0.099
185.000, 0.104
185.100, 0.111
185.200, 0.102
185.300, 0.107
185.400, 0.105
185.500, 0.101
185.600, 0.103
185.700, 0.100
185.800, 0.105
185.900, 0.110
186.000, 0.119
186.100, 0.120
186.200, 0.121
186.300, 0.112
186.400, 0.104
186.500, 0.111
186.600, 0.108
186.700, 0.110
186.800, 0.107
186.900, 0.104
187.000, 0.107
187.100, 0.115
187.200, 0.111
187.300, 0.108
187.400, 0.103
187.500, 0.107
187.600, 0.098
187.700, 0.103
187.800, 0.105
187.900, 0.101
188.000, 0.102
188.100, 0.105
188.200, 0.104
188.300, 0.103
188.400, 0.095
188.500, 0.096
188.600, 0.102
188.700, 0.096
188.800, 0.098
188.900, 0.110
189.000, 0.104
189.100, 0.113
189.200, 0.106
189.300, 0.104
189.400, 0.109
189.500, 0.103
189.600, 0.097
189.700, 0.103
189.800, 0.103
189.900, 0.103
190.000, 0.111
190.100, 0.119
190.200, 0.106
190.300, 0.105
190.400, 0.109
190.500, 0.099
190.600, 0.094
190.700, 0.099
190.800, 0.099
190.900, 0.101
191.000, 0.100
191.100, 0.098
191.200, 0.102
191.300, 0.102
191.400, 0.098
191.500, 0.100
191.600, 0.109
191.700, 0.100
191.800, 0.104
191.900, 0.104
192.000, 0.104
192.100, 0.102
192.200, 0.095
192.300, 0.102
192.400, 0.092
192.500, 0.103
192.600, 0.097
192.700, 0.101
192.800, 0.106
192.900, 0.103
193.000, 0.099
193.100, 0.109
193.200, 0.096
193.300, 0.098
193.400, 0.101
193.500, 0.102
193.600, 0.095
193.700, 0.101
193.800, 0.101
193.900, 0.098
194.000, 0.100
194.100, 0.097
194.200, 0.101
194.300, 0.106
194.400, 0.098
194.500, 0.097
194.600, 0.096
194.700, 0.091
194.800, 0.090
194.900, 0.096
195.000, 0.092
195.100, 0.095
195.200, 0.102
195.300, 0.109
195.400, 0.101
195.500, 0.105
195.600, 0.100
195.700, 0.099
195.800, 0.096
195.900, 0.087
196.000, 0.102
196.100, 0.094
196.200, 0.094
196.300, 0.094
196.400, 0.095
196.500, 0.096
196.600, 0.108
196.700, 0.098
196.800, 0.096
196.900, 0.108
197.000, 0.100
197.100, 0.112
197.200, 0.106
197.300, 0.108
197.400, 0.099
197.500, 0.098
197.600, 0.100
197.700, 0.103
197.800, 0.098
197.900, 0.101
198.000, 0.104
198.100, 0.097
198.200, 0.097
198.300, 0.102
198.400, 0.106
198.500, 0.108
198.600, 0.095
198.700, 0.110
198.800, 0.108
198.900, 0.109
199.000, 0.093
199.100, 0.096
199.200, 0.101
199.300, 0.101
199.400, 0.094
199.500, 0.097
199.600, 0.100
199.700, 0.096
199.800, 0.097
199.900, 0.109
200.000, 0.100
200.100, 0.104
200.200, 0.104
200.300, 0.108
200.400, 0.097
200.500, 0.097
200.600, 0.099
200.700, 0.100
200.800, 0.099
200.900, 0.097
201.000, 0.098
201.100, 0.098
201.200, 0.097
201.300, 0.098
201.400, 0.091
201.500, 0.103
201.600, 0.104
201.700, 0.111
201.800, 0.103
201.900, 0.108
202.000, 0.110
202.100, 0.104
202.200, 0.101
202.300, 0.111
202.400, 0.107
202.500, 0.102
202.600, 0.097
202.700, 0.105
202.800, 0.101
202.900, 0.106
203.000, 0.099
203.100, 0.103
203.200, 0.095
203.300, 0.106
203.400, 0.094
203.500, 0.097
203.600, 0.105
203.700, 0.094
203.800, 0.100
203.900, 0.102
204.000, 0.100
204.100, 0.102
204.200, 0.094
204.300, 0.088
204.400, 0.081
204.500, 0.099
204.600, 0.095
204.700, 0.098
204.800, 0.088
204.900, 0.093
205.000, 0.093
205.100, 0.089
205.200, 0.098
205.300, 0.099
205.400, 0.098
205.500, 0.092
205.600, 0.099
205.700, 0.095
205.800, 0.093
205.900, 0.097
206.000, 0.098
206.100, 0.101
206.200, 0.101
206.300, 0.092
206.400, 0.098
206.500, 0.095
206.600, 0.098
206.700, 0.104
206.800, 0.099
206.900, 0.088
207.000, 0.094
207.100, 0.088
207.200, 0.096
207.300, 0.097
207.400, 0.087
207.500, 0.089
207.600, 0.092
207.700, 0.089
207.800, 0.086
207.900, 0.089
208.000, 0.091
208.100, 0.095
208.200, 0.090
208.300, 0.091
208.400, 0.091
208.500, 0.089
208.600, 0.097
208.700, 0.089
208.800, 0.096
208.900, 0.096
209.000, 0.107
209.100, 0.089
209.200, 0.101
209.300, 0.095
209.400, 0.094
209.500, 0.102
209.600, 0.097
209.700, 0.099
209.800, 0.099
209.900, 0.093
210.000, 0.102
210.100, 0.098
210.200, 0.109
210.300, 0.099
210.400, 0.102
210.500, 0.097
210.600, 0.091
210.700, 0.091
210.800, 0.092
210.900, 0.091
211.000, 0.092
211.100, 0.103
211.200, 0.097
211.300, 0.099
211.400, 0.094
211.500, 0.099
211.600, 0.096
211.700, 0.103
211.800, 0.099
211.900, 0.114
212.000, 0.109
212.100, 0.109
212.200, 0.117
212.300, 0.110
212.400, 0.110
212.500, 0.113
212.600, 0.117
212.700, 0.110
212.800, 0.104
212.900, 0.091
213.000, 0.097
213.100, 0.091
213.200, 0.101
213.300, 0.091
213.400, 0.103
213.500, 0.114
213.600, 0.105
213.700, 0.101
213.800, 0.112
213.900, 0.101
214.000, 0.106
214.100, 0.098
214.200, 0.099
214.300, 0.097
214.400, 0.097
214.500, 0.104
214.600, 0.108
214.700, 0.109
214.800, 0.099
214.900, 0.110
215.000, 0.107
215.100, 0.116
215.200, 0.101
215.300, 0.105
215.400, 0.096
215.500, 0.105
215.600, 0.101
215.700, 0.095
215.800, 0.103
215.900, 0.111
216.000, 0.112
216.100, 0.105
216.200, 0.111
216.300, 0.109
216.400, 0.095
216.500, 0.099
216.600, 0.099
216.700, 0.100
216.800, 0.089
216.900, 0.109
217.000, 0.099
217.100, 0.115
217.200, 0.108
217.300, 0.103
217.400, 0.103
217.500, 0.115
217.600, 0.107
217.700, 0.103
217.800, 0.102
217.900, 0.094
218.000, 0.093
218.100, 0.108
218.200, 0.098
218.300, 0.093
218.400, 0.102
218.500, 0.094
218.600, 0.101
218.700, 0.095
218.800, 0.097
218.900, 0.094
219.000, 0.092
219.100, 0.103
219.200, 0.101
219.300, 0.097
219.400, 0.086
219.500, 0.096
219.600, 0.097
219.700, 0.097
219.800, 0.093
219.900, 0.099
220.000, 0.095
220.100, 0.084
220.200, 0.099
220.300, 0.095
220.400, 0.102
220.500, 0.097
220.600, 0.098
220.700, 0.096
220.800, 0.100
220.900, 0.093
221.000, 0.097
221.100, 0.100
221.200, 0.091
221.300, 0.094
221.400, 0.105
221.500, 0.099
221.600, 0.098
221.700, 0.107
221.800, 0.109
221.900, 0.106
222.000, 0.104
222.100, 0.104
222.200, 0.100
222.300, 0.094
222.400, 0.101
222.500, 0.090
222.600, 0.101
222.700, 0.101
222.800, 0.105
222.900, 0.109
223.000, 0.101
223.100, 0.099
223.200, 0.091
223.300, 0.086
223.400, 0.092
223.500, 0.091
223.600, 0.092
223.700, 0.086
223.800, 0.093
223.900, 0.096
224.000, 0.093
224.100, 0.079
224.200, 0.091
224.300, 0.084
224.400, 0.093
224.500, 0.079
224.600, 0.098
224.700, 0.097
224.800, 0.097
224.900, 0.092
225.000, 0.095
225.100, 0.096
225.200, 0.095
225.300, 0.097
225.400, 0.090
225.500, 0.099
225.600, 0.096
225.700, 0.094
225.800, 0.101
225.900, 0.098
226.000, 0.105
226.100, 0.097
226.200, 0.098
226.300, 0.093
226.400, 0.092
226.500, 0.098
226.600, 0.096
226.700, 0.083
226.800, 0.094
226.900, 0.096
227.000, 0.093
227.100, 0.096
227.200, 0.094
227.300, 0.097
227.400, 0.093
227.500, 0.094
227.600, 0.090
227.700, 0.093
227.800, 0.099
227.900, 0.086
228.000, 0.093
228.100, 0.104
228.200, 0.092
228.300, 0.105
228.400, 0.111
228.500, 0.102
228.600, 0.102
228.700, 0.104
228.800, 0.100
228.900, 0.102
229.000, 0.105
229.100, 0.093
229.200, 0.103
229.300, 0.099
229.400, 0.098
229.500, 0.102
229.600, 0.094
229.700, 0.093
229.800, 0.093
229.900, 0.090
230.000, 0.099
230.100, 0.107
230.200, 0.101
230.300, 0.100
230.400, 0.096
230.500, 0.105
230.600, 0.099
230.700, 0.099
230.800, 0.104
230.900, 0.095
231.000, 0.094
231.100, 0.096
231.200, 0.104
231.300, 0.091
231.400, 0.092
231.500, 0.092
231.600, 0.101
231.700, 0.098
231.800, 0.092
231.900, 0.097
232.000, 0.096
232.100, 0.095
232.200, 0.098
232.300, 0.091
232.400, 0.093
232.500, 0.085
232.600, 0.089
232.700, 0.097
232.800, 0.098
232.900, 0.092
233.000, 0.094
233.100, 0.099
233.200, 0.096
233.300, 0.105
233.400, 0.103
233.500, 0.096
233.600, 0.110
233.700, 0.098
233.800, 0.097
233.900, 0.103
234.000, 0.106
234.100, 0.107
234.200, 0.098
234.300, 0.100
234.400, 0.104
234.500, 0.096
234.600, 0.098
234.700, 0.103
234.800, 0.104
234.900, 0.098
235.000, 0.097
235.100, 0.105
235.200, 0.109
235.300, 0.108
235.400, 0.104
235.500, 0.104
235.600, 0.103
235.700, 0.111
235.800, 0.111
235.900, 0.106
236.000, 0.100
236.100, 0.114
236.200, 0.097
236.300, 0.104
236.400, 0.105
236.500, 0.110
236.600, 0.105
236.700, 0.098
236.800, 0.098
236.900, 0.093
237.000, 0.098
237.100, 0.108
237.200, 0.100
237.300, 0.111
237.400, 0.109
237.500, 0.108
237.600, 0.107
237.700, 0.100
237.800, 0.100
237.900, 0.102
238.000, 0.098
238.100, 0.101
238.200, 0.111
238.300, 0.106
238.400, 0.096
238.500, 0.097
238.600, 0.103
238.700, 0.098
238.800, 0.100
238.900, 0.113
239.000, 0.111
239.100, 0.104
239.200, 0.110
239.300, 0.112
239.400, 0.104
239.500, 0.103
239.600, 0.104
239.700, 0.093
239.800, 0.093
239.900, 0.095
240.000, 0.099
240.100, 0.103
240.200, 0.104
240.300, 0.095
240.400, 0.101
240.500, 0.097
240.600, 0.103
240.700, 0.095
240.800, 0.095
240.900, 0.102
241.000, 0.089
241.100, 0.099
241.200, 0.084
241.300, 0.106
241.400, 0.091
241.500, 0.094
241.600, 0.103
241.700, 0.103
241.800, 0.095
241.900, 0.103
242.000, 0.110
242.100, 0.104
242.200, 0.116
242.300, 0.097
242.400, 0.108
242.500, 0.103
242.600, 0.100
242.700, 0.099
242.800, 0.098
242.900, 0.103
243.000, 0.092
243.100, 0.092
243.200, 0.109
243.300, 0.095
243.400, 0.096
243.500, 0.095
243.600, 0.092
243.700, 0.088
243.800, 0.101
243.900, 0.094
244.000, 0.104
244.100, 0.105
244.200, 0.104
244.300, 0.112
244.400, 0.104
244.500, 0.103
244.600, 0.107
244.700, 0.100
244.800, 0.106
244.900, 0.103
245.000, 0.096
245.100, 0.103
245.200, 0.096
245.300, 0.096
245.400, 0.103
245.500, 0.099
245.600, 0.101
245.700, 0.108
245.800, 0.106
245.900, 0.107
246.000, 0.103
246.100, 0.103
246.200, 0.097
246.300, 0.101
246.400, 0.095
246.500, 0.097
246.600, 0.101
246.700, 0.108
246.800, 0.103
246.900, 0.103
247.000, 0.102
247.100, 0.101
247.200, 0.106
247.300, 0.105
247.400, 0.101
247.500, 0.102
247.600, 0.098
247.700, 0.103
247.800, 0.105
247.900, 0.100
248.000, 0.102
248.100, 0.100
248.200, 0.100
248.300, 0.099
248.400, 0.098
248.500, 0.095
248.600, 0.091
248.700, 0.102
248.800, 0.099
248.900, 0.098
249.000, 0.098
249.100, 0.102
249.200, 0.102
249.300, 0.096
249.400, 0.100
249.500, 0.105
249.600, 0.114
249.700, 0.102
249.800, 0.104
249.900, 0.096
250.000, 0.101
250.100, 0.091
250.200, 0.094
250.300, 0.095
250.400, 0.108
250.500, 0.097
250.600, 0.094
250.700, 0.097
250.800, 0.096
250.900, 0.098
251.000, 0.102
251.100, 0.092
251.200, 0.092
251.300, 0.094
251.400, 0.092
251.500, 0.094
251.600, 0.101
251.700, 0.098
251.800, 0.107
251.900, 0.103
252.000, 0.106
252.100, 0.091
252.200, 0.102
252.300, 0.106
252.400, 0.097
252.500, 0.103
252.600, 0.095
252.700, 0.098
252.800, 0.094
252.900, 0.097
253.000, 0.084
253.100, 0.091
253.200, 0.077
253.300, 0.088
253.400, 0.100
253.500, 0.095
253.600, 0.094
253.700, 0.092
253.800, 0.098
253.900, 0.096
254.000, 0.089
254.100, 0.092
254.200, 0.102
254.300, 0.097
254.400, 0.098
254.500, 0.101
254.600, 0.097
254.700, 0.107
254.800, 0.103
254.900, 0.101
255.000, 0.097
255.100, 0.094
255.200, 0.098
255.300, 0.095
255.400, 0.092
255.500, 0.090
255.600, 0.096
255.700, 0.085
255.800, 0.089
255.900, 0.090
256.000, 0.089
256.100, 0.095
256.200, 0.093
256.300, 0.092
256.400, 0.100
256.500, 0.090
256.600, 0.086
256.700, 0.089
256.800, 0.089
256.900, 0.095
257.000, 0.103
257.100, 0.086
257.200, 0.093
257.300, 0.091
257.400, 0.092
257.500, 0.102
257.600, 0.091
257.700, 0.093
257.800, 0.097
257.900, 0.092
258.000, 0.095
258.100, 0.094
258.200, 0.097
258.300, 0.093
258.400, 0.089
258.500, 0.095
258.600, 0.086
258.700, 0.096
258.800, 0.090
258.900, 0.100
259.000, 0.097
259.100, 0.091
259.200, 0.088
259.300, 0.089
259.400, 0.088
259.500, 0.088
259.600, 0.090
259.700, 0.093
259.800, 0.096
259.900, 0.087
260.000, 0.099
260.100, 0.099
260.200, 0.104
260.300, 0.108
260.400, 0.097
260.500, 0.097
260.600, 0.094
260.700, 0.102
260.800, 0.104
260.900, 0.095
261.000, 0.107
261.100, 0.102
261.200, 0.100
261.300, 0.098
261.400, 0.106
261.500, 0.105
261.600, 0.092
261.700, 0.094
261.800, 0.098
261.900, 0.108
262.000, 0.098
262.100, 0.098
262.200, 0.091
262.300, 0.089
262.400, 0.089
262.500, 0.091
262.600, 0.102
262.700, 0.096
262.800, 0.103
262.900, 0.105
263.000, 0.097
263.100, 0.092
263.200, 0.089
263.300, 0.093
263.400, 0.102
263.500, 0.105
263.600, 0.106
263.700, 0.098
263.800, 0.099
263.900, 0.093
264.000, 0.098
264.100, 0.095
264.200, 0.098
264.300, 0.091
264.400, 0.098
264.500, 0.095
264.600, 0.099
264.700, 0.099
264.800, 0.096
264.900, 0.097
265.000, 0.091
265.100, 0.100
265.200, 0.100
265.300, 0.093
265.400, 0.090
265.500, 0.100
265.600, 0.092
265.700, 0.100
265.800, 0.107
265.900, 0.097
266.000, 0.107
266.100, 0.104
266.200, 0.093
266.300, 0.098
266.400, 0.091
266.500, 0.108
266.600, 0.089
266.700, 0.090
266.800, 0.096
266.900, 0.096
267.000, 0.093
267.100, 0.096
267.200, 0.099
267.300, 0.099
267.400, 0.097
267.500, 0.101
267.600, 0.095
267.700, 0.098
267.800, 0.091
267.900, 0.091
268.000, 0.090
268.100, 0.092
268.200, 0.094
268.300, 0.088
268.400, 0.080
268.500, 0.097
268.600, 0.094
268.700, 0.095
268.800, 0.105
268.900, 0.098
269.000, 0.091
269.100, 0.097
269.200, 0.097
269.300, 0.094
269.400, 0.096
269.500, 0.092
269.600, 0.079
269.700, 0.096
269.800, 0.089
269.900, 0.088
270.000, 0.092
270.100, 0.087
270.200, 0.096
270.300, 0.100
270.400, 0.089
270.500, 0.092
270.600, 0.087
270.700, 0.095
270.800, 0.084
270.900, 0.085
271.000, 0.090
271.100, 0.084
271.200, 0.085
271.300, 0.091
271.400, 0.090
271.500, 0.083
271.600, 0.091
271.700, 0.095
271.800, 0.094
271.900, 0.091
272.000, 0.081
272.100, 0.101
272.200, 0.093
272.300, 0.094
272.400, 0.097
272.500, 0.089
272.600, 0.095
272.700, 0.090
272.800, 0.096
272.900, 0.105
273.000, 0.089
273.100, 0.100
273.200, 0.095
273.300, 0.088
273.400, 0.095
273.500, 0.094
273.600, 0.099
273.700, 0.088
273.800, 0.100
273.900, 0.097
274.000, 0.096
274.100, 0.098
274.200, 0.095
274.300, 0.105
274.400, 0.089
274.500, 0.107
274.600, 0.093
274.700, 0.107
274.800, 0.101
274.900, 0.102
275.000, 0.101
275.100, 0.097
275.200, 0.096
275.300, 0.097
275.400, 0.096
275.500, 0.099
275.600, 0.096
275.700, 0.102
275.800, 0.098
275.900, 0.102
276.000, 0.107
276.100, 0.105
276.200, 0.097
276.300, 0.104
276.400, 0.094
276.500, 0.100
276.600, 0.104
276.700, 0.107
276.800, 0.107
276.900, 0.097
277.000, 0.095
277.100, 0.100
277.200, 0.096
277.300, 0.099
277.400, 0.106
277.500, 0.102
277.600, 0.097
277.700, 0.096
277.800, 0.097
277.900, 0.089
278.000, 0.098
278.100, 0.100
278.200, 0.102
278.300, 0.104
278.400, 0.107
278.500, 0.101
278.600, 0.096
278.700, 0.107
278.800, 0.101
278.900, 0.101
279.000, 0.103
279.100, 0.083
279.200, 0.100
279.300, 0.096
279.400, 0.095
279.500, 0.097
279.600, 0.085
279.700, 0.093
279.800, 0.094
279.900, 0.086
280.000, 0.099
280.100, 0.099
280.200, 0.098
280.300, 0.105
280.400, 0.090
280.500, 0.086
280.600, 0.096
280.700, 0.091
280.800, 0.100
280.900, 0.098
281.000, 0.099
281.100, 0.088
281.200, 0.093
281.300, 0.099
281.400, 0.090
281.500, 0.091
281.600, 0.095
281.700, 0.100
281.800, 0.095
281.900, 0.097
282.000, 0.101
282.100, 0.102
282.200, 0.091
282.300, 0.101
282.400, 0.085
282.500, 0.091
282.600, 0.089
282.700, 0.101
282.800, 0.091
282.900, 0.089
283.000, 0.084
283.100, 0.089
283.200, 0.088
283.300, 0.083
283.400, 0.090
283.500, 0.104
283.600, 0.086
283.700, 0.092
283.800, 0.093
283.900, 0.106
284.000, 0.099
284.100, 0.084
284.200, 0.082
284.300, 0.091
284.400, 0.090
284.500, 0.092
284.600, 0.091
284.700, 0.102
284.800, 0.095
284.900, 0.097
285.000, 0.097
285.100, 0.100
285.200, 0.088
285.300, 0.088
285.400, 0.088
285.500, 0.097
285.600, 0.086
285.700, 0.085
285.800, 0.085
285.900, 0.097
286.000, 0.087
286.100, 0.086
286.200, 0.093
286.300, 0.095
286.400, 0.084
286.500, 0.082
286.600, 0.085
286.700, 0.092
286.800, 0.093
286.900, 0.093
287.000, 0.085
287.100, 0.084
287.200, 0.081
287.300, 0.086
287.400, 0.093
287.500, 0.095
287.600, 0.092
287.700, 0.094
287.800, 0.094
287.900, 0.092
288.000, 0.094
288.100, 0.084
288.200, 0.089
288.300, 0.092
288.400, 0.112
288.500, 0.098
288.600, 0.082
288.700, 0.095
288.800, 0.092
288.900, 0.084
289.000, 0.082
289.100, 0.095
289.200, 0.094
289.300, 0.094
289.400, 0.094
289.500, 0.082
289.600, 0.086
289.700, 0.088
289.800, 0.085
289.900, 0.091
290.000, 0.087
290.100, 0.083
290.200, 0.077
290.300, 0.088
290.400, 0.091
290.500, 0.088
290.600, 0.086
290.700, 0.088
290.800, 0.082
290.900, 0.089
291.000, 0.079
291.100, 0.082
291.200, 0.086
291.300, 0.087
291.400, 0.090
291.500, 0.095
291.600, 0.094
291.700, 0.086
291.800, 0.097
291.900, 0.094
292.000, 0.092
292.100, 0.093
292.200, 0.090
292.300, 0.091
292.400, 0.090
292.500, 0.083
292.600, 0.101
292.700, 0.099
292.800, 0.095
292.900, 0.102
293.000, 0.094
293.100, 0.111
293.200, 0.098
293.300, 0.094
293.400, 0.100
293.500, 0.106
293.600, 0.095
293.700, 0.094
293.800, 0.082
293.900, 0.080
294.000, 0.087
294.100, 0.089
294.200, 0.088
294.300, 0.086
294.400, 0.090
294.500, 0.079
294.600, 0.090
294.700, 0.098
294.800, 0.105
294.900, 0.079
295.000, 0.092
295.100, 0.081
295.200, 0.083
295.300, 0.088
295.400, 0.089
295.500, 0.102
295.600, 0.093
295.700, 0.098
295.800, 0.092
295.900, 0.081
296.000, 0.084
296.100, 0.087
296.200, 0.082
296.300, 0.078
296.400, 0.085
296.500, 0.087
296.600, 0.086
296.700, 0.083
296.800, 0.084
296.900, 0.087
297.000, 0.096
297.100, 0.078
297.200, 0.098
297.300, 0.098
297.400, 0.103
297.500, 0.097
297.600, 0.091
297.700, 0.088
297.800, 0.097
297.900, 0.090
298.000, 0.096
298.100, 0.090
298.200, 0.088
298.300, 0.090
298.400, 0.093
298.500, 0.087
298.600, 0.094
298.700, 0.098
298.800, 0.089
298.900, 0.084
299.000, 0.089
299.100, 0.093
299.200, 0.097
299.300, 0.094
299.400, 0.092
299.500, 0.094
299.600, 0.084
299.700, 0.087
299.800, 0.091
299.900, 0.087
300.000, 0.100
300.100, 0.097
300.200, 0.104
300.300, 0.094
300.400, 0.091
300.500, 0.098
300.600, 0.093
300.700, 0.087
300.800, 0.098
300.900, 0.091
301.000, 0.090
301.100, 0.078
301.200, 0.083
301.300, 0.083
301.400, 0.077
301.500, 0.087
301.600, 0.100
301.700, 0.090
301.800, 0.097
301.900, 0.087
302.000, 0.086
302.100, 0.087
302.200, 0.086
302.300, 0.087
302.400, 0.083
302.500, 0.079
302.600, 0.085
302.700, 0.089
302.800, 0.086
302.900, 0.092
303.000, 0.086
303.100, 0.099
303.200, 0.089
303.300, 0.089
303.400, 0.088
303.500, 0.088
303.600, 0.086
303.700, 0.088
303.800, 0.096
303.900, 0.093
304.000, 0.093
304.100, 0.085
304.200, 0.091
304.300, 0.084
304.400, 0.088
304.500, 0.091
304.600, 0.089
304.700, 0.077
304.800, 0.090
304.900, 0.088
305.000, 0.084
305.100, 0.089
305.200, 0.091
305.300, 0.088
305.400, 0.096
305.500, 0.105
305.600, 0.087
305.700, 0.082
305.800, 0.082
305.900, 0.082
306.000, 0.079
306.100, 0.091
306.200, 0.086
306.300, 0.089
306.400, 0.100
306.500, 0.093
306.600, 0.093
306.700, 0.097
306.800, 0.101
306.900, 0.093
307.000, 0.096
307.100, 0.100
307.200, 0.088
307.300, 0.084
307.400, 0.095
307.500, 0.083
307.600, 0.089
307.700, 0.090
307.800, 0.103
307.900, 0.094
308.000, 0.095
308.100, 0.104
308.200, 0.107
308.300, 0.103
308.400, 0.096
308.500, 0.106
308.600, 0.095
308.700, 0.098
308.800, 0.102
308.900, 0.101
309.000, 0.099
309.100, 0.098
309.200, 0.102
309.300, 0.106
309.400, 0.096
309.500, 0.106
309.600, 0.107
309.700, 0.105
309.800, 0.103
309.900, 0.095
310.000, 0.096
310.100, 0.098
310.200, 0.098
310.300, 0.099
310.400, 0.099
310.500, 0.102
310.600, 0.093
310.700, 0.105
310.800, 0.102
310.900, 0.106
311.000, 0.098
311.100, 0.094
311.200, 0.098
311.300, 0.097
311.400, 0.102
311.500, 0.104
311.600, 0.099
311.700, 0.094
311.800, 0.101
311.900, 0.101
312.000, 0.093
312.100, 0.088
312.200, 0.096
312.300, 0.094
312.400, 0.093
312.500, 0.097
312.600, 0.095
312.700, 0.096
312.800, 0.093
312.900, 0.095
313.000, 0.093
313.100, 0.095
313.200, 0.094
313.300, 0.096
313.400, 0.096
313.500, 0.092
313.600, 0.105
313.700, 0.107
313.800, 0.097
313.900, 0.103
314.000, 0.106
314.100, 0.107
314.200, 0.092
314.300, 0.098
314.400, 0.092
314.500, 0.093
314.600, 0.095
314.700, 0.090
314.800, 0.099
314.900, 0.094
315.000, 0.089
315.100, 0.092
315.200, 0.090
315.300, 0.093
315.400, 0.092
315.500, 0.097
315.600, 0.092
315.700, 0.083
315.800, 0.091
315.900, 0.086
316.000, 0.090
316.100, 0.097
316.200, 0.091
316.300, 0.096
316.400, 0.097
316.500, 0.095
316.600, 0.091
316.700, 0.098
316.800, 0.101
316.900, 0.100
317.000, 0.094
317.100, 0.107
317.200, 0.088
317.300, 0.086
317.400, 0.088
317.500, 0.093
317.600, 0.085
317.700, 0.094
317.800, 0.091
317.900, 0.099
318.000, 0.097
318.100, 0.096
318.200, 0.086
318.300, 0.095
318.400, 0.103
318.500, 0.104
318.600, 0.098
318.700, 0.097
318.800, 0.097
318.900, 0.089
319.000, 0.092
319.100, 0.098
319.200, 0.100
319.300, 0.098
319.400, 0.099
319.500, 0.098
319.600, 0.100
319.700, 0.098
319.800, 0.096
319.900, 0.097
320.000, 0.109
320.100, 0.093
320.200, 0.099
320.300, 0.093
320.400, 0.102
320.500, 0.096
320.600, 0.096
320.700, 0.096
320.800, 0.090
320.900, 0.098
321.000, 0.092
321.100, 0.101
321.200, 0.098
321.300, 0.096
321.400, 0.090
321.500, 0.090
321.600, 0.094
321.700, 0.090
321.800, 0.094
321.900, 0.093
322.000, 0.093
322.100, 0.094
322.200, 0.095
322.300, 0.101
322.400, 0.095
322.500, 0.088
322.600, 0.084
322.700, 0.085
322.800, 0.091
322.900, 0.090
323.000, 0.098
323.100, 0.087
323.200, 0.090
323.300, 0.099
323.400, 0.101
323.500, 0.093
323.600, 0.094
323.700, 0.094
323.800, 0.097
323.900, 0.095
324.000, 0.084
324.100, 0.084
324.200, 0.092
324.300, 0.091
324.400, 0.092
324.500, 0.085
324.600, 0.088
324.700, 0.085
324.800, 0.092
324.900, 0.098
325.000, 0.089
325.100, 0.092
325.200, 0.084
325.300, 0.082
325.400, 0.097
325.500, 0.090
325.600, 0.092
325.700, 0.091
325.800, 0.091
325.900, 0.097
326.000, 0.095
326.100, 0.095
326.200, 0.086
326.300, 0.091
326.400, 0.098
326.500, 0.091
326.600, 0.082
326.700, 0.085
326.800, 0.095
326.900, 0.092
327.000, 0.092
327.100, 0.091
327.200, 0.096
327.300, 0.089
327.400, 0.094
327.500, 0.097
327.600, 0.087
327.700, 0.086
327.800, 0.085
327.900, 0.094
328.000, 0.089
328.100, 0.087
328.200, 0.092
328.300, 0.090
328.400, 0.093
328.500, 0.096
328.600, 0.093
328.700, 0.091
328.800, 0.090
328.900, 0.091
329.000, 0.090
329.100, 0.087
329.200, 0.093
329.300, 0.093
329.400, 0.092
329.500, 0.087
329.600, 0.082
329.700, 0.087
329.800, 0.086
329.900, 0.077
330.000, 0.086
330.100, 0.087
330.200, 0.091
330.300, 0.092
330.400, 0.084
330.500, 0.096
330.600, 0.092
330.700, 0.087
330.800, 0.095
330.900, 0.094
331.000, 0.089
331.100, 0.089
331.200, 0.098
331.300, 0.099
331.400, 0.095
331.500, 0.100
331.600, 0.096
331.700, 0.095
331.800, 0.096
331.900, 0.103
332.000, 0.104
332.100, 0.099
332.200, 0.106
332.300, 0.098
332.400, 0.093
332.500, 0.102
332.600, 0.096
332.700, 0.095
332.800, 0.098
332.900, 0.096
333.000, 0.097
333.100, 0.097
333.200, 0.097
333.300, 0.094
333.400, 0.097
333.500, 0.102
333.600, 0.102
333.700, 0.094
333.800, 0.101
333.900, 0.099
334.000, 0.104
334.100, 0.099
334.200, 0.100
334.300, 0.102
334.400, 0.097
334.500, 0.107
334.600, 0.104
334.700, 0.099
334.800, 0.097
334.900, 0.105
335.000, 0.108
335.100, 0.095
335.200, 0.098
335.300, 0.106
335.400, 0.097
335.500, 0.113
335.600, 0.102
335.700, 0.100
335.800, 0.110
335.900, 0.103
336.000, 0.102
336.100, 0.100
336.200, 0.097
336.300, 0.104
336.400, 0.106
336.500, 0.100
336.600, 0.107
336.700, 0.095
336.800, 0.105
336.900, 0.111
337.000, 0.103
337.100, 0.104
337.200, 0.109
337.300, 0.105
337.400, 0.104
337.500, 0.105
337.600, 0.093
337.700, 0.102
337.800, 0.103
337.900, 0.105
338.000, 0.102
338.100, 0.105
338.200, 0.111
338.300, 0.103
338.400, 0.101
338.500, 0.098
338.600, 0.099
338.700, 0.111
338.800, 0.098
338.900, 0.106
339.000, 0.099
339.100, 0.096
339.200, 0.111
339.300, 0.110
339.400, 0.109
339.500, 0.103
339.600, 0.105
339.700, 0.103
339.800, 0.100
339.900, 0.101
340.000, 0.101
340.100, 0.104
340.200, 0.100
340.300, 0.101
340.400, 0.109
340.500, 0.092
340.600, 0.095
340.700, 0.095
340.800, 0.099
340.900, 0.094
341.000, 0.102
341.100, 0.092
341.200, 0.104
341.300, 0.109
341.400, 0.108
341.500, 0.107
341.600, 0.119
341.700, 0.104
341.800, 0.102
341.900, 0.106
342.000, 0.114
342.100, 0.109
342.200, 0.110
342.300, 0.110
342.400, 0.114
342.500, 0.109
342.600, 0.107
342.700, 0.102
342.800, 0.103
342.900, 0.104
343.000, 0.107
343.100, 0.098
343.200, 0.100
343.300, 0.106
343.400, 0.112
343.500, 0.102
343.600, 0.103
343.700, 0.110
343.800, 0.101
343.900, 0.104
344.000, 0.107
344.100, 0.106
344.200, 0.109
344.300, 0.092
344.400, 0.102
344.500, 0.105
344.600, 0.101
344.700, 0.107
344.800, 0.097
344.900, 0.103
345.000, 0.103
345.100, 0.105
345.200, 0.104
345.300, 0.104
345.400, 0.102
345.500, 0.101
345.600, 0.104
345.700, 0.107
345.800, 0.101
345.900, 0.108
346.000, 0.099
346.100, 0.109
346.200, 0.099
346.300, 0.106
346.400, 0.109
346.500, 0.110
346.600, 0.104
346.700, 0.107
346.800, 0.104
346.900, 0.104
347.000, 0.115
347.100, 0.109
347.200, 0.107
347.300, 0.101
347.400, 0.102
347.500, 0.108
347.600, 0.102
347.700, 0.109
347.800, 0.104
347.900, 0.113
348.000, 0.119
348.100, 0.105
348.200, 0.109
348.300, 0.107
348.400, 0.111
348.500, 0.107
348.600, 0.104
348.700, 0.104
348.800, 0.112
348.900, 0.104
349.000, 0.101
349.100, 0.095
349.200, 0.102
349.300, 0.095
349.400, 0.098
349.500, 0.100
349.600, 0.089
349.700, 0.094
349.800, 0.103
349.900, 0.095
350.000, 0.093
350.100, 0.099
350.200, 0.093
350.300, 0.097
350.400, 0.095
350.500, 0.093
350.600, 0.094
350.700, 0.104
350.800, 0.110
350.900, 0.106
351.000, 0.102
351.100, 0.103
351.200, 0.102
351.300, 0.102
351.400, 0.107
351.500, 0.095
351.600, 0.104
351.700, 0.102
351.800, 0.106
351.900, 0.101
352.000, 0.098
352.100, 0.101
352.200, 0.100
352.300, 0.103
352.400, 0.101
352.500, 0.104
352.600, 0.110
352.700, 0.103
352.800, 0.108
352.900, 0.097
353.000, 0.104
353.100, 0.096
353.200, 0.099
353.300, 0.100
353.400, 0.102
353.500, 0.103
353.600, 0.102
353.700, 0.110
353.800, 0.108
353.900, 0.108
354.000, 0.105
354.100, 0.096
354.200, 0.096
354.300, 0.104
354.400, 0.116
354.500, 0.106
354.600, 0.107
354.700, 0.108
354.800, 0.102
354.900, 0.103
355.000, 0.114
355.100, 0.106
355.200, 0.108
355.300, 0.107
355.400, 0.116
355.500, 0.102
355.600, 0.108
355.700, 0.106
355.800, 0.103
355.900, 0.102
356.000, 0.097
356.100, 0.099
356.200, 0.100
356.300, 0.099
356.400, 0.098
356.500, 0.114
356.600, 0.103
356.700, 0.109
356.800, 0.101
356.900, 0.100
357.000, 0.104
357.100, 0.103
357.200, 0.101
357.300, 0.106
357.400, 0.107
357.500, 0.111
357.600, 0.117
357.700, 0.111
357.800, 0.116
357.900, 0.103
358.000, 0.101
358.100, 0.102
358.200, 0.107
358.300, 0.107
358.400, 0.097
358.500, 0.105
358.600, 0.105
358.700, 0.108
358.800, 0.105
358.900, 0.112
359.000, 0.104
359.100, 0.111
359.200, 0.110
359.300, 0.093
359.400, 0.097
359.500, 0.092
359.600, 0.099
359.700, 0.096
359.800, 0.114
359.900, 0.111
360.000, 0.099
360.100, 0.102
360.200, 0.099
360.300, 0.106
360.400, 0.104
360.500, 0.105
360.600, 0.103
360.700, 0.100
360.800, 0.105
360.900, 0.111
361.000, 0.106
361.100, 0.105
361.200, 0.099
361.300, 0.097
361.400, 0.109
361.500, 0.099
361.600, 0.099
361.700, 0.099
361.800, 0.097
361.900, 0.099
362.000, 0.105
362.100, 0.101
362.200, 0.099
362.300, 0.099
362.400, 0.104
362.500, 0.094
362.600, 0.094
362.700, 0.101
362.800, 0.098
362.900, 0.097
363.000, 0.094
363.100, 0.108
363.200, 0.105
363.300, 0.101
363.400, 0.096
363.500, 0.095
363.600, 0.098
363.700, 0.098
363.800, 0.095
363.900, 0.099
364.000, 0.098
364.100, 0.104
364.200, 0.095
364.300, 0.100
364.400, 0.099
364.500, 0.105
364.600, 0.094
364.700, 0.101
364.800, 0.097
364.900, 0.093
365.000, 0.097
365.100, 0.096
365.200, 0.099
365.300, 0.101
365.400, 0.108
365.500, 0.091
365.600, 0.097
365.700, 0.087
365.800, 0.101
365.900, 0.106
366.000, 0.095
366.100, 0.098
366.200, 0.101
366.300, 0.098
366.400, 0.103
366.500, 0.107
366.600, 0.104
366.700, 0.087
366.800, 0.108
366.900, 0.099
367.000, 0.093
367.100, 0.099
367.200, 0.095
367.300, 0.097
367.400, 0.099
367.500, 0.100
367.600, 0.105
367.700, 0.096
367.800, 0.102
367.900, 0.099
368.000, 0.107
368.100, 0.100
368.200, 0.095
368.300, 0.095
368.400, 0.103
368.500, 0.099
368.600, 0.099
368.700, 0.096
368.800, 0.102
368.900, 0.104
369.000, 0.096
369.100, 0.099
369.200, 0.093
369.300, 0.104
369.400, 0.105
369.500, 0.106
369.600, 0.103
369.700, 0.100
369.800, 0.103
369.900, 0.103
370.000, 0.093
370.100, 0.094
370.200, 0.087
370.300, 0.093
370.400, 0.096
370.500, 0.103
370.600, 0.090
370.700, 0.098
370.800, 0.095
370.900, 0.091
371.000, 0.095
371.100, 0.091
371.200, 0.091
371.300, 0.095
371.400, 0.100
371.500, 0.098
371.600, 0.100
371.700, 0.091
371.800, 0.094
371.900, 0.097
372.000, 0.106
372.100, 0.095
372.200, 0.109
372.300, 0.098
372.400, 0.100
372.500, 0.096
372.600, 0.100
372.700, 0.097
372.800, 0.099
372.900, 0.104
373.000, 0.097
373.100, 0.100
373.200, 0.108
373.300, 0.095
373.400, 0.102
373.500, 0.099
373.600, 0.091
373.700, 0.084
373.800, 0.089
373.900, 0.097
374.000, 0.083
374.100, 0.089
374.200, 0.087
374.300, 0.094
374.400, 0.083
374.500, 0.091
374.600, 0.087
374.700, 0.107
374.800, 0.087
374.900, 0.092
375.000, 0.086
375.100, 0.090
375.200, 0.089
375.300, 0.095
375.400, 0.093
375.500, 0.093
375.600, 0.099
375.700, 0.091
375.800, 0.098
375.900, 0.099
376.000, 0.083
376.100, 0.095
376.200, 0.094
376.300, 0.095
376.400, 0.085
376.500, 0.094
376.600, 0.085
376.700, 0.093
376.800, 0.093
376.900, 0.086
377.000, 0.085
377.100, 0.091
377.200, 0.086
377.300, 0.083
377.400, 0.074
377.500, 0.081
377.600, 0.078
377.700, 0.093
377.800, 0.093
377.900, 0.093
378.000, 0.092
378.100, 0.086
378.200, 0.085
378.300, 0.100
378.400, 0.088
378.500, 0.087
378.600, 0.090
378.700, 0.087
378.800, 0.094
378.900, 0.098
379.000, 0.101
379.100, 0.100
379.200, 0.095
379.300, 0.098
379.400, 0.094
379.500, 0.094
379.600, 0.088
379.700, 0.085
379.800, 0.084
379.900, 0.085
380.000, 0.087
380.100, 0.090
380.200, 0.089
380.300, 0.088
380.400, 0.096
380.500, 0.089
380.600, 0.094
380.700, 0.091
380.800, 0.086
380.900, 0.087
381.000, 0.084
381.100, 0.079
381.200, 0.079
381.300, 0.084
381.400, 0.086
381.500, 0.082
381.600, 0.080
381.700, 0.086
381.800, 0.085
381.900, 0.080
382.000, 0.076
382.100, 0.087
382.200, 0.086
382.300, 0.083
382.400, 0.080
382.500, 0.083
382.600, 0.085
382.700, 0.081
382.800, 0.087
382.900, 0.084
383.000, 0.086
383.100, 0.077
383.200, 0.086
383.300, 0.092
383.400, 0.095
383.500, 0.096
383.600, 0.082
383.700, 0.094
383.800, 0.098
383.900, 0.087
384.000, 0.084
384.100, 0.088
384.200, 0.083
384.300, 0.087
384.400, 0.087
384.500, 0.078
384.600, 0.076
384.700, 0.086
384.800, 0.083
384.900, 0.088
385.000, 0.087
385.100, 0.085
385.200, 0.083
385.300, 0.086
385.400, 0.095
385.500, 0.090
385.600, 0.091
385.700, 0.089
385.800, 0.085
385.900, 0.093
386.000, 0.104
386.100, 0.099
386.200, 0.095
386.300, 0.096
386.400, 0.099
386.500, 0.102
386.600, 0.102
386.700, 0.092
386.800, 0.101
386.900, 0.094
387.000, 0.098
387.100, 0.097
387.200, 0.104
387.300, 0.091
387.400, 0.096
387.500, 0.103
387.600, 0.094
387.700, 0.087
387.800, 0.086
387.900, 0.092
388.000, 0.094
388.100, 0.092
388.200, 0.098
388.300, 0.091
388.400, 0.092
388.500, 0.096
388.600, 0.091
388.700, 0.084
388.800, 0.087
388.900, 0.086
389.000, 0.087
389.100, 0.083
389.200, 0.083
389.300, 0.086
389.400, 0.093
389.500, 0.100
389.600, 0.093
389.700, 0.090
389.800, 0.082
389.900, 0.096
390.000, 0.096
390.100, 0.099
390.200, 0.090
390.300, 0.090
390.400, 0.100
390.500, 0.100
390.600, 0.089
390.700, 0.082
390.800, 0.085
390.900, 0.092
391.000, 0.097
391.100, 0.093
391.200, 0.095
391.300, 0.089
391.400, 0.088
391.500, 0.086
391.600, 0.091
391.700, 0.086
391.800, 0.090
391.900, 0.087
392.000, 0.090
392.100, 0.091
392.200, 0.091
392.300, 0.094
392.400, 0.087
392.500, 0.089
392.600, 0.089
392.700, 0.090
392.800, 0.088
392.900, 0.096
393.000, 0.093
393.100, 0.087
393.200, 0.102
393.300, 0.089
393.400, 0.081
393.500, 0.080
393.600, 0.089
393.700, 0.083
393.800, 0.082
393.900, 0.090
394.000, 0.097
394.100, 0.084
394.200, 0.098
394.300, 0.097
394.400, 0.090
394.500, 0.082
394.600, 0.093
394.700, 0.092
394.800, 0.094
394.900, 0.085
395.000, 0.077
395.100, 0.086
395.200, 0.092
395.300, 0.091
395.400, 0.097
395.500, 0.097
395.600, 0.095
395.700, 0.094
395.800, 0.083
395.900, 0.091
396.000, 0.085
396.100, 0.089
396.200, 0.083
396.300, 0.083
396.400, 0.099
396.500, 0.084
396.600, 0.084
396.700, 0.093
396.800, 0.084
396.900, 0.085
397.000, 0.086
397.100, 0.095
397.200, 0.082
397.300, 0.083
397.400, 0.086
397.500, 0.084
397.600, 0.083
397.700, 0.083
397.800, 0.089
397.900, 0.088
398.000, 0.089
398.100, 0.091
398.200, 0.093
398.300, 0.100
398.400, 0.107
398.500, 0.091
398.600, 0.086
398.700, 0.085
398.800, 0.082
398.900, 0.092
399.000, 0.091
399.100, 0.094
399.200, 0.090
399.300, 0.095
399.400, 0.097
399.500, 0.088
399.600, 0.082
399.700, 0.090
399.800, 0.101
399.900, 0.084
400.000, 0.082
400.100, 0.091
400.200, 0.093
400.300, 0.092
400.400, 0.096
400.500, 0.092
400.600, 0.099
400.700, 0.096
400.800, 0.089
400.900, 0.091
401.000, 0.088
401.100, 0.089
401.200, 0.091
401.300, 0.092
401.400, 0.086
401.500, 0.085
401.600, 0.095
401.700, 0.093
401.800, 0.096
401.900, 0.096
402.000, 0.098
402.100, 0.111
402.200, 0.100
402.300, 0.092
402.400, 0.100
402.500, 0.102
402.600, 0.090
402.700, 0.099
402.800, 0.098
402.900, 0.097
403.000, 0.086
403.100, 0.083
403.200, 0.090
403.300, 0.092
403.400, 0.093
403.500, 0.095
403.600, 0.088
403.700, 0.093
403.800, 0.089
403.900, 0.090
404.000, 0.088
404.100, 0.089
404.200, 0.091
404.300, 0.082
404.400, 0.090
404.500, 0.087
404.600, 0.096
404.700, 0.100
404.800, 0.097
404.900, 0.096
405.000, 0.099
405.100, 0.108
405.200, 0.104
405.300, 0.097
405.400, 0.104
405.500, 0.089
405.600, 0.096
405.700, 0.090
405.800, 0.095
405.900, 0.103
406.000, 0.108
406.100, 0.090
406.200, 0.100
406.300, 0.101
406.400, 0.098
406.500, 0.096
406.600, 0.089
406.700, 0.086
406.800, 0.093
406.900, 0.096
407.000, 0.084
407.100, 0.084
407.200, 0.093
407.300, 0.084
407.400, 0.087
407.500, 0.102
407.600, 0.098
407.700, 0.109
407.800, 0.106
407.900, 0.095
408.000, 0.099
408.100, 0.093
408.200, 0.089
408.300, 0.098
408.400, 0.096
408.500, 0.095
408.600, 0.093
408.700, 0.096
408.800, 0.090
408.900, 0.097
409.000, 0.086
409.100, 0.091
409.200, 0.088
409.300, 0.087
409.400, 0.093
409.500, 0.090
409.600, 0.089
409.700, 0.096
409.800, 0.096
409.900, 0.089
410.000, 0.091
410.100, 0.095
410.200, 0.091
410.300, 0.089
410.400, 0.102
410.500, 0.101
410.600, 0.089
410.700, 0.092
410.800, 0.099
410.900, 0.102
411.000, 0.098
411.100, 0.094
411.200, 0.086
411.300, 0.092
411.400, 0.103
411.500, 0.103
411.600, 0.111
411.700, 0.105
411.800, 0.108
411.900, 0.112
412.000, 0.089
412.100, 0.095
412.200, 0.092
412.300, 0.095
412.400, 0.097
412.500, 0.113
412.600, 0.087
412.700, 0.090
412.800, 0.087
412.900, 0.097
413.000, 0.089
413.100, 0.089
413.200, 0.089
413.300, 0.098
413.400, 0.083
413.500, 0.095
413.600, 0.095
413.700, 0.098
413.800, 0.090
413.900, 0.099
414.000, 0.097
414.100, 0.101
414.200, 0.096
414.300, 0.105
414.400, 0.100
414.500, 0.098
414.600, 0.089
414.700, 0.096
414.800, 0.088
414.900, 0.095
415.000, 0.078
415.100, 0.089
415.200, 0.089
415.300, 0.094
415.400, 0.098
415.500, 0.091
415.600, 0.104
415.700, 0.088
415.800, 0.104
415.900, 0.095
416.000, 0.097
416.100, 0.106
416.200, 0.093
416.300, 0.093
416.400, 0.084
416.500, 0.093
416.600, 0.085
416.700, 0.091
416.800, 0.087
416.900, 0.094
417.000, 0.100
417.100, 0.095
417.200, 0.089
417.300, 0.094
417.400, 0.078
417.500, 0.102
417.600, 0.093
417.700, 0.102
417.800, 0.085
417.900, 0.089
418.000, 0.089
418.100, 0.087
418.200, 0.079
418.300, 0.087
418.400, 0.080
418.500, 0.082
418.600, 0.084
418.700, 0.088
418.800, 0.084
418.900, 0.089
419.000, 0.093
419.100, 0.096
419.200, 0.088
419.300, 0.085
419.400, 0.083
419.500, 0.080
419.600, 0.085
419.700, 0.081
419.800, 0.085
419.900, 0.088
420.000, 0.084
420.100, 0.085
420.200, 0.085
420.300, 0.085
420.400, 0.090
420.500, 0.097
420.600, 0.086
420.700, 0.085
420.800, 0.096
420.900, 0.093
421.000, 0.091
421.100, 0.095
421.200, 0.082
421.300, 0.089
421.400, 0.097
421.500, 0.088
421.600, 0.086
421.700, 0.082
421.800, 0.079
421.900, 0.088
422.000, 0.093
422.100, 0.087
422.200, 0.089
422.300, 0.101
422.400, 0.101
422.500, 0.091
422.600, 0.086
422.700, 0.087
422.800, 0.091
422.900, 0.091
423.000, 0.105
423.100, 0.097
423.200, 0.091
423.300, 0.100
423.400, 0.094
423.500, 0.103
423.600, 0.097
423.700, 0.093
423.800, 0.100
423.900, 0.091
424.000, 0.091
424.100, 0.100
424.200, 0.093
424.300, 0.095
424.400, 0.101
424.500, 0.100
424.600, 0.094
424.700, 0.098
424.800, 0.098
424.900, 0.097
425.000, 0.092
425.100, 0.104
425.200, 0.102
425.300, 0.100
425.400, 0.093
425.500, 0.090
425.600, 0.100
425.700, 0.094
425.800, 0.096
425.900, 0.097
426.000, 0.097
426.100, 0.104
426.200, 0.100
426.300, 0.094
426.400, 0.093
426.500, 0.093
426.600, 0.083
426.700, 0.095
426.800, 0.091
426.900, 0.086
427.000, 0.094
427.100, 0.085
427.200, 0.084
427.300, 0.086
427.400, 0.083
427.500, 0.095
427.600, 0.086
427.700, 0.088
427.800, 0.096
427.900, 0.096
428.000, 0.095
428.100, 0.097
428.200, 0.105
428.300, 0.101
428.400, 0.090
428.500, 0.095
428.600, 0.089
428.700, 0.083
428.800, 0.091
428.900, 0.093
429.000, 0.083
429.100, 0.084
429.200, 0.087
429.300, 0.087
429.400, 0.083
429.500, 0.087
429.600, 0.090
429.700, 0.086
429.800, 0.096
429.900, 0.079
430.000, 0.087
430.100, 0.082
430.200, 0.090
430.300, 0.093
430.400, 0.086
430.500, 0.084
430.600, 0.078
430.700, 0.093
430.800, 0.081
430.900, 0.083
431.000, 0.090
431.100, 0.093
431.200, 0.081
431.300, 0.087
431.400, 0.075
431.500, 0.082
431.600, 0.086
431.700, 0.098
431.800, 0.091
431.900, 0.088
432.000, 0.086
432.100, 0.094
432.200, 0.096
432.300, 0.090
432.400, 0.088
432.500, 0.096
432.600, 0.092
432.700, 0.091
432.800, 0.090
432.900, 0.093
433.000, 0.085
433.100, 0.089
433.200, 0.099
433.300, 0.084
433.400, 0.087
433.500, 0.098
433.600, 0.091
433.700, 0.099
433.800, 0.094
433.900, 0.089
434.000, 0.089
434.100, 0.093
434.200, 0.091
434.300, 0.092
434.400, 0.089
434.500, 0.093
434.600, 0.096
434.700, 0.087
434.800, 0.102
434.900, 0.088
435.000, 0.098
435.100, 0.091
435.200, 0.099
435.300, 0.094
435.400, 0.086
435.500, 0.086
435.600, 0.083
435.700, 0.098
435.800, 0.091
435.900, 0.098
436.000, 0.091
436.100, 0.098
436.200, 0.090
436.300, 0.095
436.400, 0.086
436.500, 0.082
436.600, 0.088
436.700, 0.090
436.800, 0.101
436.900, 0.090
437.000, 0.087
437.100, 0.088
437.200, 0.089
437.300, 0.096
437.400, 0.084
437.500, 0.087
437.600, 0.088
437.700, 0.085
437.800, 0.094
437.900, 0.095
438.000, 0.094
438.100, 0.096
438.200, 0.100
438.300, 0.102
438.400, 0.104
438.500, 0.096
438.600, 0.084
438.700, 0.090
438.800, 0.084
438.900, 0.098
439.000, 0.093
439.100, 0.104
439.200, 0.098
439.300, 0.105
439.400, 0.106
439.500, 0.101
439.600, 0.103
439.700, 0.102
439.800, 0.095
439.900, 0.101
440.000, 0.096
440.100, 0.098
440.200, 0.091
440.300, 0.086
440.400, 0.086
440.500, 0.101
440.600, 0.098
440.700, 0.107
440.800, 0.093
440.900, 0.100
441.000, 0.097
441.100, 0.099
441.200, 0.109
441.300, 0.091
441.400, 0.085
441.500, 0.089
441.600, 0.081
441.700, 0.088
441.800, 0.097
441.900, 0.080
442.000, 0.097
442.100, 0.093
442.200, 0.099
442.300, 0.097
442.400, 0.084
442.500, 0.089
442.600, 0.103
442.700, 0.097
442.800, 0.092
442.900, 0.095
443.000, 0.088
443.100, 0.093
443.200, 0.085
443.300, 0.086
443.400, 0.096
443.500, 0.086
443.600, 0.092
443.700, 0.097
443.800, 0.085
443.900, 0.085
444.000, 0.084
444.100, 0.089
444.200, 0.078
444.300, 0.089
444.400, 0.094
444.500, 0.095
444.600, 0.098
444.700, 0.084
444.800, 0.081
444.900, 0.085
445.000, 0.077
445.100, 0.081
445.200, 0.083
445.300, 0.086
445.400, 0.091
445.500, 0.094
445.600, 0.089
445.700, 0.087
445.800, 0.089
445.900, 0.081
446.000, 0.083
446.100, 0.084
446.200, 0.085
446.300, 0.081
446.400, 0.089
446.500, 0.089
446.600, 0.099
446.700, 0.090
446.800, 0.089
446.900, 0.083
447.000, 0.089
447.100, 0.092
447.200, 0.086
447.300, 0.091
447.400, 0.094
447.500, 0.096
447.600, 0.088
447.700, 0.094
447.800, 0.090
447.900, 0.103
448.000, 0.093
448.100, 0.091
448.200, 0.096
448.300, 0.092
448.400, 0.093
448.500, 0.093
448.600, 0.086
448.700, 0.081
448.800, 0.090
448.900, 0.096
449.000, 0.086
449.100, 0.092
449.200, 0.085
449.300, 0.090
449.400, 0.091
449.500, 0.091
449.600, 0.088
449.700, 0.093
449.800, 0.083
449.900, 0.083
450.000, 0.083
450.100, 0.088
450.200, 0.076
450.300, 0.085
450.400, 0.085
450.500, 0.080
450.600, 0.089
450.700, 0.086
450.800, 0.090
450.900, 0.084
451.000, 0.080
451.100, 0.085
451.200, 0.088
451.300, 0.089
451.400, 0.097
451.500, 0.082
451.600, 0.090
451.700, 0.087
451.800, 0.086
451.900, 0.083
452.000, 0.079
452.100, 0.082
452.200, 0.095
452.300, 0.092
452.400, 0.097
452.500, 0.093
452.600, 0.095
452.700, 0.086
452.800, 0.082
452.900, 0.079
453.000, 0.090
453.100, 0.091
453.200, 0.086
453.300, 0.082
453.400, 0.086
453.500, 0.084
453.600, 0.085
453.700, 0.086
453.800, 0.095
453.900, 0.081
454.000, 0.087
454.100, 0.088
454.200, 0.090
454.300, 0.079
454.400, 0.091
454.500, 0.085
454.600, 0.087
454.700, 0.089
454.800, 0.084
454.900, 0.100
455.000, 0.094
455.100, 0.096
455.200, 0.094
455.300, 0.090
455.400, 0.088
455.500, 0.083
455.600, 0.092
455.700, 0.087
455.800, 0.090
455.900, 0.083
456.000, 0.085
456.100, 0.089
456.200, 0.083
456.300, 0.089
456.400, 0.092
456.500, 0.085
456.600, 0.085
456.700, 0.089
456.800, 0.094
456.900, 0.083
457.000, 0.091
457.100, 0.084
457.200, 0.087
457.300, 0.095
457.400, 0.093
457.500, 0.102
457.600, 0.100
457.700, 0.092
457.800, 0.092
457.900, 0.099
458.000, 0.110
458.100, 0.100
458.200, 0.105
458.300, 0.091
458.400, 0.093
458.500, 0.090
458.600, 0.095
458.700, 0.097
458.800, 0.100
458.900, 0.092
459.000, 0.094
459.100, 0.095
459.200, 0.099
459.300, 0.092
459.400, 0.095
459.500, 0.089
459.600, 0.093
459.700, 0.092
459.800, 0.093
459.900, 0.087
460.000, 0.092
460.100, 0.090
460.200, 0.086
460.300, 0.086
460.400, 0.087
460.500, 0.086
460.600, 0.084
460.700, 0.087
460.800, 0.086
460.900, 0.081
461.000, 0.084
461.100, 0.087
461.200, 0.080
461.300, 0.087
461.400, 0.086
461.500, 0.099
461.600, 0.093
461.700, 0.089
461.800, 0.088
461.900, 0.085
462.000, 0.080
462.100, 0.090
462.200, 0.088
462.300, 0.095
462.400, 0.086
462.500, 0.094
462.600, 0.102
462.700, 0.084
462.800, 0.077
462.900, 0.085
463.000, 0.082
463.100, 0.090
463.200, 0.084
463.300, 0.079
463.400, 0.082
463.500, 0.087
463.600, 0.083
463.700, 0.085
463.800, 0.083
463.900, 0.080
464.000, 0.086
464.100, 0.083
464.200, 0.092
464.300, 0.087
464.400, 0.093
464.500, 0.093
464.600, 0.096
464.700, 0.089
464.800, 0.093
464.900, 0.091
465.000, 0.088
465.100, 0.086
465.200, 0.101
465.300, 0.089
465.400, 0.087
465.500, 0.088
465.600, 0.087
465.700, 0.095
465.800, 0.085
465.900, 0.092
466.000, 0.099
466.100, 0.093
466.200, 0.081
466.300, 0.091
466.400, 0.093
466.500, 0.087
466.600, 0.083
466.700, 0.090
466.800, 0.087
466.900, 0.082
467.000, 0.086
467.100, 0.086
467.200, 0.083
467.300, 0.085
467.400, 0.089
467.500, 0.085
467.600, 0.081
467.700, 0.088
467.800, 0.083
467.900, 0.085
468.000, 0.079
468.100, 0.084
468.200, 0.084
468.300, 0.087
468.400, 0.087
468.500, 0.083
468.600, 0.091
468.700, 0.090
468.800, 0.083
468.900, 0.094
469.000, 0.094
469.100, 0.086
469.200, 0.096
469.300, 0.094
469.400, 0.096
469.500, 0.085
469.600, 0.091
469.700, 0.095
469.800, 0.087
469.900, 0.102
470.000, 0.096
470.100, 0.091
470.200, 0.090
470.300, 0.092
470.400, 0.092
470.500, 0.095
470.600, 0.103
470.700, 0.095
470.800, 0.101
470.900, 0.098
471.000, 0.094
471.100, 0.086
471.200, 0.094
471.300, 0.108
471.400, 0.100
471.500, 0.099
471.600, 0.091
471.700, 0.101
471.800, 0.098
471.900, 0.096
472.000, 0.097
472.100, 0.096
472.200, 0.095
472.300, 0.085
472.400, 0.106
472.500, 0.101
472.600, 0.104
472.700, 0.092
472.800, 0.099
472.900, 0.087
473.000, 0.090
473.100, 0.091
473.200, 0.090
473.300, 0.093
473.400, 0.090
473.500, 0.099
473.600, 0.099
473.700, 0.091
473.800, 0.090
473.900, 0.101
474.000, 0.090
474.100, 0.103
474.200, 0.095
474.300, 0.102
474.400, 0.090
474.500, 0.097
474.600, 0.090
474.700, 0.088
474.800, 0.106
474.900, 0.100
475.000, 0.103
475.100, 0.100
475.200, 0.101
475.300, 0.100
475.400, 0.094
475.500, 0.102
475.600, 0.095
475.700, 0.094
475.800, 0.095
475.900, 0.096
476.000, 0.105
476.100, 0.097
476.200, 0.085
476.300, 0.090
476.400, 0.103
476.500, 0.097
476.600, 0.102
476.700, 0.093
476.800, 0.095
476.900, 0.096
477.000, 0.093
477.100, 0.100
477.200, 0.095
477.300, 0.107
477.400, 0.100
477.500, 0.102
477.600, 0.091
477.700, 0.096
477.800, 0.105
477.900, 0.100
478.000, 0.103
478.100, 0.098
478.200, 0.100
478.300, 0.109
478.400, 0.101
478.500, 0.103
478.600, 0.101
478.700, 0.103
478.800, 0.097
478.900, 0.083
479.000, 0.097
479.100, 0.081
479.200, 0.082
479.300, 0.081
479.400, 0.087
479.500, 0.083
479.600, 0.085
479.700, 0.093
479.800, 0.089
479.900, 0.086
480.000, 0.087
480.100, 0.084
480.200, 0.088
480.300, 0.084
480.400, 0.084
480.500, 0.084
480.600, 0.077
480.700, 0.071
480.800, 0.078
480.900, 0.082
481.000, 0.081
481.100, 0.078
481.200, 0.096
481.300, 0.084
481.400, 0.096
481.500, 0.093
481.600, 0.090
481.700, 0.083
481.800, 0.093
481.900, 0.085
482.000, 0.083
482.100, 0.082
482.200, 0.090
482.300, 0.080
482.400, 0.085
482.500, 0.095
482.600, 0.087
482.700, 0.093
482.800, 0.088
482.900, 0.080
483.000, 0.089
483.100, 0.093
483.200, 0.084
483.300, 0.096
483.400, 0.087
483.500, 0.079
483.600, 0.095
483.700, 0.092
483.800, 0.092
483.900, 0.082
484.000, 0.077
484.100, 0.083
484.200, 0.077
484.300, 0.099
484.400, 0.096
484.500, 0.089
484.600, 0.087
484.700, 0.094
484.800, 0.093
484.900, 0.090
485.000, 0.086
485.100, 0.093
485.200, 0.098
485.300, 0.095
485.400, 0.077
485.500, 0.088
485.600, 0.084
485.700, 0.096
485.800, 0.097
485.900, 0.097
486.000, 0.089
486.100, 0.095
486.200, 0.097
486.300, 0.091
486.400, 0.084
486.500, 0.089
486.600, 0.085
486.700, 0.092
486.800, 0.088
486.900, 0.077
487.000, 0.093
487.100, 0.094
487.200, 0.100
487.300, 0.096
487.400, 0.097
487.500, 0.092
487.600, 0.105
487.700, 0.100
487.800, 0.100
487.900, 0.094
488.000, 0.089
488.100, 0.088
488.200, 0.092
488.300, 0.091
488.400, 0.100
488.500, 0.093
488.600, 0.087
488.700, 0.096
488.800, 0.096
488.900, 0.101
489.000, 0.098
489.100, 0.097
489.200, 0.098
489.300, 0.088
489.400, 0.101
489.500, 0.104
489.600, 0.102
489.700, 0.089
489.800, 0.098
489.900, 0.097
490.000, 0.089
490.100, 0.090
490.200, 0.095
490.300, 0.088
490.400, 0.103
490.500, 0.090
490.600, 0.103
490.700, 0.092
490.800, 0.096
490.900, 0.099
491.000, 0.098
491.100, 0.096
491.200, 0.089
491.300, 0.085
491.400, 0.094
491.500, 0.091
491.600, 0.097
491.700, 0.097
491.800, 0.086
491.900, 0.096
492.000, 0.096
492.100, 0.082
492.200, 0.078
492.300, 0.087
492.400, 0.086
492.500, 0.096
492.600, 0.098
492.700, 0.092
492.800, 0.089
492.900, 0.082
493.000, 0.094
493.100, 0.091
493.200, 0.099
493.300, 0.090
493.400, 0.086
493.500, 0.093
493.600, 0.092
493.700, 0.088
493.800, 0.091
493.900, 0.090
494.000, 0.083
494.100, 0.077
494.200, 0.101
494.300, 0.087
494.400, 0.093
494.500, 0.092
494.600, 0.089
494.700, 0.092
494.800, 0.084
494.900, 0.088
495.000, 0.093
495.100, 0.083
495.200, 0.078
495.300, 0.086
495.400, 0.088
495.500, 0.088
495.600, 0.093
495.700, 0.090
495.800, 0.089
495.900, 0.084
496.000, 0.087
496.100, 0.089
496.200, 0.092
496.300, 0.083
496.400, 0.084
496.500, 0.096
496.600, 0.089
496.700, 0.099
496.800, 0.085
496.900, 0.089
497.000, 0.080
497.100, 0.086
497.200, 0.082
497.300, 0.084
497.400, 0.090
497.500, 0.090
497.600, 0.098
497.700, 0.086
497.800, 0.091
497.900, 0.094
498.000, 0.090
498.100, 0.076
498.200, 0.082
498.300, 0.077
498.400, 0.082
498.500, 0.097
498.600, 0.087
498.700, 0.086
498.800, 0.089
498.900, 0.080
499.000, 0.091
499.100, 0.097
499.200, 0.087
499.300, 0.084
499.400, 0.089
499.500, 0.091
499.600, 0.082
499.700, 0.084
499.800, 0.102
499.900, 0.085
500.000, 0.088
500.100, 0.078
500.200, 0.087
500.300, 0.084
500.400, 0.075
500.500, 0.090
500.600, 0.087
500.700, 0.087
500.800, 0.087
500.900, 0.083
501.000, 0.086
501.100, 0.094
501.200, 0.087
501.300, 0.086
501.400, 0.084
501.500, 0.081
501.600, 0.089
501.700, 0.091
501.800, 0.085
501.900, 0.093
502.000, 0.092
502.100, 0.086
502.200, 0.091
502.300, 0.088
502.400, 0.093
502.500, 0.088
502.600, 0.094
502.700, 0.089
502.800, 0.081
502.900, 0.084
503.000, 0.080
503.100, 0.088
503.200, 0.089
503.300, 0.079
503.400, 0.085
503.500, 0.084
503.600, 0.087
503.700, 0.095
503.800, 0.081
503.900, 0.088
504.000, 0.087
504.100, 0.095
504.200, 0.094
504.300, 0.091
504.400, 0.095
504.500, 0.084
504.600, 0.104
504.700, 0.090
504.800, 0.090
504.900, 0.095
505.000, 0.089
505.100, 0.090
505.200, 0.073
505.300, 0.090
505.400, 0.100
505.500, 0.091
505.600, 0.094
505.700, 0.079
505.800, 0.090
505.900, 0.086
506.000, 0.088
506.100, 0.089
506.200, 0.087
506.300, 0.085
506.400, 0.087
506.500, 0.089
506.600, 0.084
506.700, 0.083
506.800, 0.085
506.900, 0.096
507.000, 0.087
507.100, 0.085
507.200, 0.089
507.300, 0.094
507.400, 0.088
507.500, 0.094
507.600, 0.098
507.700, 0.094
507.800, 0.092
507.900, 0.097
508.000, 0.104
508.100, 0.097
508.200, 0.091
508.300, 0.084
508.400, 0.085
508.500, 0.091
508.600, 0.083
508.700, 0.080
508.800, 0.087
508.900, 0.097
509.000, 0.100
509.100, 0.091
509.200, 0.093
509.300, 0.095
509.400, 0.094
509.500, 0.095
509.600, 0.117
509.700, 0.093
509.800, 0.086
509.900, 0.092
510.000, 0.102
510.100, 0.092
510.200, 0.093
510.300, 0.084
510.400, 0.092
510.500, 0.091
510.600, 0.089
510.700, 0.097
510.800, 0.093
510.900, 0.087
511.000, 0.093
511.100, 0.086
511.200, 0.102
511.300, 0.093
511.400, 0.088
511.500, 0.087
511.600, 0.096
511.700, 0.085
511.800, 0.096
511.900, 0.088
512.000, 0.092
512.100, 0.093
512.200, 0.080
512.300, 0.088
512.400, 0.077
512.500, 0.082
512.600, 0.081
512.700, 0.081
512.800, 0.084
512.900, 0.084
513.000, 0.079
513.100, 0.086
513.200, 0.088
513.300, 0.095
513.400, 0.093
513.500, 0.086
513.600, 0.089
513.700, 0.087
513.800, 0.094
513.900, 0.081
514.000, 0.086
514.100, 0.092
514.200, 0.093
514.300, 0.088
514.400, 0.081
514.500, 0.091
514.600, 0.089
514.700, 0.090
514.800, 0.090
514.900, 0.085
515.000, 0.084
515.100, 0.086
515.200, 0.099
515.300, 0.088
515.400, 0.089
515.500, 0.091
515.600, 0.084
515.700, 0.095
515.800, 0.088
515.900, 0.093
516.000, 0.091
516.100, 0.093
516.200, 0.089
516.300, 0.094
516.400, 0.092
516.500, 0.087
516.600, 0.090
516.700, 0.082
516.800, 0.079
516.900, 0.085
517.000, 0.074
517.100, 0.091
517.200, 0.084
517.300, 0.081
517.400, 0.085
517.500, 0.074
517.600, 0.083
517.700, 0.090
517.800, 0.082
517.900, 0.089
518.000, 0.108
518.100, 0.099
518.200, 0.095
518.300, 0.088
518.400, 0.082
518.500, 0.091
518.600, 0.080
518.700, 0.091
518.800, 0.095
518.900, 0.099
519.000, 0.090
519.100, 0.084
519.200, 0.081
519.300, 0.084
519.400, 0.084
519.500, 0.099
519.600, 0.074
519.700, 0.078
519.800, 0.081
519.900, 0.086
520.000, 0.078
520.100, 0.076
520.200, 0.080
520.300, 0.087
520.400, 0.083
520.500, 0.080
520.600, 0.093
520.700, 0.091
520.800, 0.078
520.900, 0.083
521.000, 0.080
521.100, 0.082
521.200, 0.079
521.300, 0.075
521.400, 0.088
521.500, 0.073
521.600, 0.087
521.700, 0.081
521.800, 0.084
521.900, 0.078
522.000, 0.088
522.100, 0.082
522.200, 0.092
522.300, 0.082
522.400, 0.095
522.500, 0.081
522.600, 0.088
522.700, 0.081
522.800, 0.092
522.900, 0.102
523.000, 0.085
523.100, 0.096
523.200, 0.095
523.300, 0.104
523.400, 0.094
523.500, 0.095
523.600, 0.106
523.700, 0.103
523.800, 0.102
523.900, 0.101
524.000, 0.100
524.100, 0.081
524.200, 0.094
524.300, 0.090
524.400, 0.096
524.500, 0.095
524.600, 0.101
524.700, 0.096
524.800, 0.094
524.900, 0.100
525.000, 0.104
525.100, 0.083
525.200, 0.090
525.300, 0.099
525.400, 0.082
525.500, 0.101
525.600, 0.085
525.700, 0.099
525.800, 0.105
525.900, 0.098
526.000, 0.096
526.100, 0.108
526.200, 0.115
526.300, 0.107
526.400, 0.103
526.500, 0.097
526.600, 0.091
526.700, 0.086
526.800, 0.080
526.900, 0.084
527.000, 0.097
527.100, 0.090
527.200, 0.089
527.300, 0.105
527.400, 0.104
527.500, 0.100
527.600, 0.103
527.700, 0.098
527.800, 0.097
527.900, 0.104
528.000, 0.092
528.100, 0.093
528.200, 0.101
528.300, 0.098
528.400, 0.112
528.500, 0.095
528.600, 0.105
528.700, 0.099
528.800, 0.085
528.900, 0.099
529.000, 0.097
529.100, 0.092
529.200, 0.094
529.300, 0.089
529.400, 0.090
529.500, 0.098
529.600, 0.087
529.700, 0.079
529.800, 0.083
529.900, 0.089
530.000, 0.102
530.100, 0.095
530.200, 0.082
530.300, 0.097
530.400, 0.095
530.500, 0.101
530.600, 0.089
530.700, 0.093
530.800, 0.092
530.900, 0.091
531.000, 0.091
531.100, 0.097
531.200, 0.098
531.300, 0.091
531.400, 0.088
531.500, 0.082
531.600, 0.089
531.700, 0.095
531.800, 0.089
531.900, 0.082
532.000, 0.083
532.100, 0.105
532.200, 0.090
532.300, 0.090
532.400, 0.091
532.500, 0.094
532.600, 0.086
532.700, 0.093
532.800, 0.090
532.900, 0.088
533.000, 0.091
533.100, 0.089
533.200, 0.092
533.300, 0.090
533.400, 0.090
533.500, 0.095
533.600, 0.096
533.700, 0.096
533.800, 0.094
533.900, 0.089
534.000, 0.088
534.100, 0.090
534.200, 0.093
534.300, 0.087
534.400, 0.086
534.500, 0.082
534.600, 0.089
534.700, 0.085
534.800, 0.085
534.900, 0.087
535.000, 0.086
535.100, 0.085
535.200, 0.096
535.300, 0.086
535.400, 0.075
535.500, 0.083
535.600, 0.092
535.700, 0.088
535.800, 0.082
535.900, 0.086
536.000, 0.086
536.100, 0.089
536.200, 0.091
536.300, 0.108
536.400, 0.102
536.500, 0.090
536.600, 0.084
536.700, 0.083
536.800, 0.081
536.900, 0.083
537.000, 0.080
537.100, 0.087
537.200, 0.081
537.300, 0.088
537.400, 0.083
537.500, 0.080
537.600, 0.100
537.700, 0.098
537.800, 0.092
537.900, 0.089
538.000, 0.079
538.100, 0.092
538.200, 0.105
538.300, 0.092
538.400, 0.087
538.500, 0.083
538.600, 0.091
538.700, 0.097
538.800, 0.083
538.900, 0.090
539.000, 0.097
539.100, 0.092
539.200, 0.094
539.300, 0.092
539.400, 0.086
539.500, 0.082
539.600, 0.082
539.700, 0.086
539.800, 0.086
539.900, 0.092
540.000, 0.095
540.100, 0.099
540.200, 0.093
540.300, 0.100
540.400, 0.094
540.500, 0.084
540.600, 0.088
540.700, 0.092
540.800, 0.095
540.900, 0.090
541.000, 0.102
541.100, 0.095
541.200, 0.082
541.300, 0.086
541.400, 0.090
541.500, 0.084
541.600, 0.081
541.700, 0.090
541.800, 0.090
541.900, 0.092
542.000, 0.092
542.100, 0.086
542.200, 0.088
542.300, 0.085
542.400, 0.096
542.500, 0.096
542.600, 0.092
542.700, 0.096
542.800, 0.088
542.900, 0.089
543.000, 0.098
543.100, 0.101
543.200, 0.087
543.300, 0.082
543.400, 0.087
543.500, 0.094
543.600, 0.102
543.700, 0.095
543.800, 0.094
543.900, 0.098
544.000, 0.089
544.100, 0.089
544.200, 0.091
544.300, 0.092
544.400, 0.105
544.500, 0.087
544.600, 0.089
544.700, 0.098
544.800, 0.091
544.900, 0.109
545.000, 0.095
545.100, 0.098
545.200, 0.095
545.300, 0.101
545.400, 0.098
545.500, 0.098
545.600, 0.101
545.700, 0.097
545.800, 0.099
545.900, 0.109
546.000, 0.093
546.100, 0.098
546.200, 0.094
546.300, 0.096
546.400, 0.096
546.500, 0.092
546.600, 0.118
546.700, 0.091
546.800, 0.092
546.900, 0.094
547.000, 0.096
547.100, 0.084
547.200, 0.105
547.300, 0.105
547.400, 0.093
547.500, 0.099
547.600, 0.101
547.700, 0.098
547.800, 0.099
547.900, 0.099
548.000, 0.091
548.100, 0.095
548.200, 0.089
548.300, 0.096
548.400, 0.087
548.500, 0.102
548.600, 0.101
548.700, 0.094
548.800, 0.100
548.900, 0.102
549.000, 0.096
549.100, 0.102
549.200, 0.101
549.300, 0.103
549.400, 0.095
549.500, 0.083
549.600, 0.099
549.700, 0.095
549.800, 0.096
549.900, 0.104
550.000, 0.102
550.100, 0.104
550.200, 0.103
550.300, 0.123
550.400, 0.095
550.500, 0.086
550.600, 0.092
550.700, 0.094
550.800, 0.089
550.900, 0.092
551.000, 0.097
551.100, 0.090
551.200, 0.098
551.300, 0.090
551.400, 0.094
551.500, 0.112
551.600, 0.113
551.700, 0.101
551.800, 0.088
551.900, 0.094
552.000, 0.095
552.100, 0.091
552.200, 0.086
552.300, 0.087
552.400, 0.094
552.500, 0.111
552.600, 0.107
552.700, 0.095
552.800, 0.101
552.900, 0.097
553.000, 0.098
553.100, 0.106
553.200, 0.100
553.300, 0.108
553.400, 0.097
553.500, 0.104
553.600, 0.097
553.700, 0.107
553.800, 0.106
553.900, 0.096
554.000, 0.096
554.100, 0.103
554.200, 0.093
554.300, 0.099
554.400, 0.096
554.500, 0.098
554.600, 0.100
554.700, 0.103
554.800, 0.099
554.900, 0.105
555.000, 0.108
555.100, 0.105
555.200, 0.111
555.300, 0.097
555.400, 0.093
555.500, 0.100
555.600, 0.102
555.700, 0.107
555.800, 0.110
555.900, 0.111
556.000, 0.105
556.100, 0.097
556.200, 0.107
556.300, 0.109
556.400, 0.107
556.500, 0.107
556.600, 0.112
556.700, 0.103
556.800, 0.108
556.900, 0.118
557.000, 0.100
557.100, 0.099
557.200, 0.107
557.300, 0.102
557.400, 0.097
557.500, 0.088
557.600, 0.101
557.700, 0.101
557.800, 0.104
557.900, 0.092
558.000, 0.093
558.100, 0.090
558.200, 0.104
558.300, 0.103
558.400, 0.096
558.500, 0.086
558.600, 0.092
558.700, 0.105
558.800, 0.099
558.900, 0.096
559.000, 0.099
559.100, 0.103
559.200, 0.110
559.300, 0.093
559.400, 0.099
559.500, 0.090
559.600, 0.098
559.700, 0.096
559.800, 0.095
559.900, 0.103
560.000, 0.100
560.100, 0.091
560.200, 0.101
560.300, 0.091
560.400, 0.102
560.500, 0.106
560.600, 0.104
560.700, 0.103
560.800, 0.087
560.900, 0.084
561.000, 0.093
561.100, 0.090
561.200, 0.092
561.300, 0.105
561.400, 0.104
561.500, 0.104
561.600, 0.115
561.700, 0.100
561.800, 0.104
561.900, 0.097
562.000, 0.098
562.100, 0.096
562.200, 0.102
562.300, 0.107
562.400, 0.102
562.500, 0.103
562.600, 0.114
562.700, 0.099
562.800, 0.102
562.900, 0.103
563.000, 0.097
563.100, 0.105
563.200, 0.099
563.300, 0.090
563.400, 0.096
563.500, 0.092
563.600, 0.098
563.700, 0.098
563.800, 0.096
563.900, 0.104
564.000, 0.099
564.100, 0.099
564.200, 0.089
564.300, 0.096
564.400, 0.100
564.500, 0.103
564.600, 0.089
564.700, 0.104
564.800, 0.104
564.900, 0.102
565.000, 0.104
565.100, 0.103
565.200, 0.105
565.300, 0.091
565.400, 0.103
565.500, 0.094
565.600, 0.100
565.700, 0.103
565.800, 0.092
565.900, 0.091
566.000, 0.092
566.100, 0.098
566.200, 0.097
566.300, 0.091
566.400, 0.096
566.500, 0.090
566.600, 0.097
566.700, 0.095
566.800, 0.115
566.900, 0.105
567.000, 0.091
567.100, 0.089
567.200, 0.099
567.300, 0.093
567.400, 0.095
567.500, 0.096
567.600, 0.107
567.700, 0.090
567.800, 0.090
567.900, 0.094
568.000, 0.100
568.100, 0.093
568.200, 0.092
568.300, 0.089
568.400, 0.089
568.500, 0.095
568.600, 0.085
568.700, 0.090
568.800, 0.097
568.900, 0.089
569.000, 0.096
569.100, 0.098
569.200, 0.103
569.300, 0.084
569.400, 0.101
569.500, 0.094
569.600, 0.089
569.700, 0.097
569.800, 0.097
569.900, 0.099
570.000, 0.087
570.100, 0.094
570.200, 0.098
570.300, 0.095
570.400, 0.110
570.500, 0.094
570.600, 0.087
570.700, 0.093
570.800, 0.093
570.900, 0.088
571.000, 0.089
571.100, 0.089
571.200, 0.101
571.300, 0.091
571.400, 0.098
571.500, 0.088
571.600, 0.092
571.700, 0.088
571.800, 0.095
571.900, 0.090
572.000, 0.092
572.100, 0.101
572.200, 0.082
572.300, 0.080
572.400, 0.088
572.500, 0.095
572.600, 0.089
572.700, 0.089
572.800, 0.095
572.900, 0.097
573.000, 0.092
573.100, 0.098
573.200, 0.087
573.300, 0.089
573.400, 0.089
573.500, 0.085
573.600, 0.091
573.700, 0.091
573.800, 0.082
573.900, 0.084
574.000, 0.089
574.100, 0.088
574.200, 0.091
574.300, 0.093
574.400, 0.092
574.500, 0.088
574.600, 0.089
574.700, 0.088
574.800, 0.084
574.900, 0.092
575.000, 0.083
575.100, 0.085
575.200, 0.090
575.300, 0.089
575.400, 0.092
575.500, 0.085
575.600, 0.095
575.700, 0.087
575.800, 0.091
575.900, 0.093
576.000, 0.102
576.100, 0.102
576.200, 0.098
576.300, 0.092
576.400, 0.093
576.500, 0.095
576.600, 0.088
576.700, 0.091
576.800, 0.097
576.900, 0.084
577.000, 0.089
577.100, 0.091
577.200, 0.099
577.300, 0.085
577.400, 0.077
577.500, 0.084
577.600, 0.086
577.700, 0.087
577.800, 0.079
577.900, 0.090
578.000, 0.083
578.100, 0.081
578.200, 0.090
578.300, 0.095
578.400, 0.093
578.500, 0.088
578.600, 0.081
578.700, 0.097
578.800, 0.087
578.900, 0.091
579.000, 0.092
579.100, 0.091
579.200, 0.090
579.300, 0.097
579.400, 0.084
579.500, 0.088
579.600, 0.095
579.700, 0.095
579.800, 0.082
579.900, 0.089
580.000, 0.092
580.100, 0.097
580.200, 0.092
580.300, 0.085
580.400, 0.087
580.500, 0.081
580.600, 0.094
580.700, 0.101
580.800, 0.093
580.900, 0.093
581.000, 0.088
581.100, 0.088
581.200, 0.089
581.300, 0.090
581.400, 0.089
581.500, 0.099
581.600, 0.089
581.700, 0.095
581.800, 0.098
581.900, 0.103
582.000, 0.085
582.100, 0.090
582.200, 0.093
582.300, 0.087
582.400, 0.100
582.500, 0.088
582.600, 0.087
582.700, 0.083
582.800, 0.098
582.900, 0.090
583.000, 0.085
583.100, 0.091
583.200, 0.098
583.300, 0.101
583.400, 0.094
583.500, 0.087
583.600, 0.097
583.700, 0.093
583.800, 0.094
583.900, 0.089
584.000, 0.089
584.100, 0.088
584.200, 0.089
584.300, 0.093
584.400, 0.090
584.500, 0.092
584.600, 0.087
584.700, 0.092
584.800, 0.085
584.900, 0.099
585.000, 0.098
585.100, 0.093
585.200, 0.091
585.300, 0.093
585.400, 0.082
585.500, 0.096
585.600, 0.089
585.700, 0.090
585.800, 0.100
585.900, 0.104
586.000, 0.095
586.100, 0.098
586.200, 0.089
586.300, 0.096
586.400, 0.088
586.500, 0.093
586.600, 0.089
586.700, 0.091
586.800, 0.095
586.900, 0.090
587.000, 0.088
587.100, 0.097
587.200, 0.087
587.300, 0.085
587.400, 0.092
587.500, 0.092
587.600, 0.085
587.700, 0.086
587.800, 0.093
587.900, 0.086
588.000, 0.087
588.100, 0.089
588.200, 0.096
588.300, 0.107
588.400, 0.101
588.500, 0.092
588.600, 0.087
588.700, 0.093
588.800, 0.086
588.900, 0.082
589.000, 0.087
589.100, 0.087
589.200, 0.095
589.300, 0.089
589.400, 0.083
589.500, 0.091
589.600, 0.085
589.700, 0.088
589.800, 0.104
589.900, 0.093
590.000, 0.107
590.100, 0.097
590.200, 0.095
590.300, 0.091
590.400, 0.093
590.500, 0.095
590.600, 0.091
590.700, 0.088
590.800, 0.083
590.900, 0.093
591.000, 0.087
591.100, 0.087
591.200, 0.094
591.300, 0.097
591.400, 0.089
591.500, 0.099
591.600, 0.095
591.700, 0.102
591.800, 0.099
591.900, 0.089
592.000, 0.101
592.100, 0.092
592.200, 0.096
592.300, 0.096
592.400, 0.097
592.500, 0.095
592.600, 0.112
592.700, 0.102
592.800, 0.100
592.900, 0.097
593.000, 0.090
593.100, 0.095
593.200, 0.091
593.300, 0.093
593.400, 0.089
593.500, 0.095
593.600, 0.087
593.700, 0.083
593.800, 0.093
593.900, 0.092
594.000, 0.088
594.100, 0.088
594.200, 0.086
594.300, 0.088
594.400, 0.088
594.500, 0.100
594.600, 0.094
594.700, 0.094
594.800, 0.084
594.900, 0.089
595.000, 0.091
595.100, 0.092
595.200, 0.085
595.300, 0.089
595.400, 0.087
595.500, 0.093
595.600, 0.089
595.700, 0.088
595.800, 0.088
595.900, 0.092
596.000, 0.097
596.100, 0.090
596.200, 0.087
596.300, 0.081
596.400, 0.086
596.500, 0.085
596.600, 0.085
596.700, 0.092
596.800, 0.088
596.900, 0.085
597.000, 0.088
597.100, 0.088
597.200, 0.091
597.300, 0.089
597.400, 0.082
597.500, 0.097
597.600, 0.105
597.700, 0.097
597.800, 0.083
597.900, 0.095
598.000, 0.096
598.100, 0.090
598.200, 0.099
598.300, 0.092
598.400, 0.090
598.500, 0.098
598.600, 0.089
598.700, 0.094
598.800, 0.084
598.900, 0.095
599.000, 0.091
599.100, 0.088
599.200, 0.090
599.300, 0.096
599.400, 0.091
599.500, 0.089
599.600, 0.091
599.700, 0.095
599.800, 0.092
599.900, 0.099
600.000, 0.089
600.100, 0.102
600.200, 0.098
600.300, 0.104
600.400, 0.097
600.500, 0.093
600.600, 0.106
600.700, 0.095
600.800, 0.090
600.900, 0.100
601.000, 0.101
601.100, 0.087
601.200, 0.096
601.300, 0.100
601.400, 0.098
601.500, 0.092
601.600, 0.097
601.700, 0.111
601.800, 0.113
601.900, 0.110
602.000, 0.112
602.100, 0.100
602.200, 0.110
602.300, 0.102
602.400, 0.106
602.500, 0.112
602.600, 0.108
602.700, 0.110
602.800, 0.113
602.900, 0.110
603.000, 0.115
603.100, 0.096
603.200, 0.105
603.300, 0.109
603.400, 0.105
603.500, 0.098
603.600, 0.100
603.700, 0.095
603.800, 0.100
603.900, 0.111
604.000, 0.100
604.100, 0.110
604.200, 0.095
604.300, 0.100
604.400, 0.103
604.500, 0.101
604.600, 0.100
604.700, 0.102
604.800, 0.104
604.900, 0.099
605.000, 0.115
605.100, 0.120
605.200, 0.112
605.300, 0.108
605.400, 0.115
605.500, 0.100
605.600, 0.102
605.700, 0.113
605.800, 0.106
605.900, 0.102
606.000, 0.109
606.100, 0.106
606.200, 0.104
606.300, 0.103
606.400, 0.106
606.500, 0.104
606.600, 0.109
606.700, 0.113
606.800, 0.096
606.900, 0.105
607.000, 0.098
607.100, 0.108
607.200, 0.099
607.300, 0.097
607.400, 0.104
607.500, 0.110
607.600, 0.099
607.700, 0.102
607.800, 0.090
607.900, 0.097
608.000, 0.099
608.100, 0.092
608.200, 0.102
608.300, 0.098
608.400, 0.105
608.500, 0.113
608.600, 0.111
608.700, 0.119
608.800, 0.120
608.900, 0.120
609.000, 0.117
609.100, 0.112
609.200, 0.100
609.300, 0.112
609.400, 0.104
609.500, 0.112
609.600, 0.105
609.700, 0.105
609.800, 0.094
609.900, 0.094
610.000, 0.103
610.100, 0.102
610.200, 0.096
610.300, 0.103
610.400, 0.096
610.500, 0.092
610.600, 0.092
610.700, 0.093
610.800, 0.102
610.900, 0.103
611.000, 0.095
611.100, 0.108
611.200, 0.103
611.300, 0.097
611.400, 0.092
611.500, 0.105
611.600, 0.099
611.700, 0.092
611.800, 0.100
611.900, 0.092
612.000, 0.097
612.100, 0.088
612.200, 0.097
612.300, 0.100
612.400, 0.099
612.500, 0.092
612.600, 0.095
612.700, 0.097
612.800, 0.089
612.900, 0.097
613.000, 0.096
613.100, 0.100
613.200, 0.098
613.300, 0.102
613.400, 0.100
613.500, 0.083
613.600, 0.091
613.700, 0.092
613.800, 0.095
613.900, 0.088
614.000, 0.089
614.100, 0.088
614.200, 0.092
614.300, 0.092
614.400, 0.095
614.500, 0.105
614.600, 0.103
614.700, 0.097
614.800, 0.100
614.900, 0.088
615.000, 0.089
615.100, 0.085
615.200, 0.094
615.300, 0.089
615.400, 0.090
615.500, 0.087
615.600, 0.095
615.700, 0.088
615.800, 0.095
615.900, 0.089
616.000, 0.093
616.100, 0.087
616.200, 0.088
616.300, 0.101
616.400, 0.098
616.500, 0.101
616.600, 0.097
616.700, 0.099
616.800, 0.104
616.900, 0.103
617.000, 0.097
617.100, 0.095
617.200, 0.089
617.300, 0.088
617.400, 0.097
617.500, 0.095
617.600, 0.102
617.700, 0.101
617.800, 0.096
617.900, 0.103
618.000, 0.106
618.100, 0.098
618.200, 0.101
618.300, 0.103
618.400, 0.096
618.500, 0.101
618.600, 0.105
618.700, 0.106
618.800, 0.106
618.900, 0.101
619.000, 0.098
619.100, 0.095
619.200, 0.101
619.300, 0.095
619.400, 0.087
619.500, 0.100
619.600, 0.089
619.700, 0.093
619.800, 0.083
619.900, 0.094
620.000, 0.092
620.100, 0.100
620.200, 0.088
620.300, 0.091
620.400, 0.095
620.500, 0.098
620.600, 0.088
620.700, 0.088
620.800, 0.088
620.900, 0.089
621.000, 0.093
621.100, 0.086
621.200, 0.099
621.300, 0.089
621.400, 0.091
621.500, 0.093
621.600, 0.091
621.700, 0.083
621.800, 0.079
621.900, 0.093
622.000, 0.092
622.100, 0.094
622.200, 0.091
622.300, 0.090
622.400, 0.093
622.500, 0.089
622.600, 0.088
622.700, 0.083
622.800, 0.090
622.900, 0.091
623.000, 0.087
623.100, 0.084
623.200, 0.091
623.300, 0.092
623.400, 0.089
623.500, 0.094
623.600, 0.092
623.700, 0.084
623.800, 0.087
623.900, 0.097
624.000, 0.097
624.100, 0.091
624.200, 0.098
624.300, 0.102
624.400, 0.092
624.500, 0.092
624.600, 0.081
624.700, 0.082
624.800, 0.088
624.900, 0.083
625.000, 0.077
625.100, 0.080
625.200, 0.085
625.300, 0.091
625.400, 0.094
625.500, 0.090
625.600, 0.093
625.700, 0.086
625.800, 0.096
625.900, 0.089
626.000, 0.084
626.100, 0.085
626.200, 0.086
626.300, 0.091
626.400, 0.084
626.500, 0.091
626.600, 0.088
626.700, 0.083
626.800, 0.087
626.900, 0.089
627.000, 0.087
627.100, 0.087
627.200, 0.091
627.300, 0.089
627.400, 0.090
627.500, 0.081
627.600, 0.087
627.700, 0.096
627.800, 0.087
627.900, 0.092
628.000, 0.097
628.100, 0.087
628.200, 0.091
628.300, 0.088
628.400, 0.085
628.500, 0.085
628.600, 0.091
628.700, 0.077
628.800, 0.094
628.900, 0.090
629.000, 0.086
629.100, 0.087
629.200, 0.085
629.300, 0.086
629.400, 0.076
629.500, 0.083
629.600, 0.093
629.700, 0.086
629.800, 0.085
629.900, 0.088
630.000, 0.090
630.100, 0.088
630.200, 0.094
630.300, 0.090
630.400, 0.088
630.500, 0.083
630.600, 0.088
630.700, 0.081
630.800, 0.088
630.900, 0.086
631.000, 0.086
631.100, 0.090
631.200, 0.087
631.300, 0.087
631.400, 0.080
631.500, 0.079
631.600, 0.085
631.700, 0.083
631.800, 0.085
631.900, 0.088
632.000, 0.084
632.100, 0.088
632.200, 0.079
632.300, 0.086
632.400, 0.088
632.500, 0.087
632.600, 0.084
632.700, 0.081
632.800, 0.080
632.900, 0.094
633.000, 0.091
633.100, 0.091
633.200, 0.088
633.300, 0.083
633.400, 0.085
633.500, 0.092
633.600, 0.085
633.700, 0.084
633.800, 0.092
633.900, 0.093
634.000, 0.088
634.100, 0.088
634.200, 0.082
634.300, 0.088
634.400, 0.097
634.500, 0.094
634.600, 0.092
634.700, 0.084
634.800, 0.088
634.900, 0.083
635.000, 0.090
635.100, 0.090
635.200, 0.097
635.300, 0.093
635.400, 0.096
635.500, 0.094
635.600, 0.095
635.700, 0.088
635.800, 0.095
635.900, 0.083
636.000, 0.088
636.100, 0.087
636.200, 0.098
636.300, 0.098
636.400, 0.087
636.500, 0.096
636.600, 0.086
636.700, 0.084
636.800, 0.093
636.900, 0.092
637.000, 0.086
637.100, 0.085
637.200, 0.095
637.300, 0.104
637.400, 0.086
637.500, 0.095
637.600, 0.087
637.700, 0.094
637.800, 0.087
637.900, 0.087
638.000, 0.090
638.100, 0.090
638.200, 0.087
638.300, 0.089
638.400, 0.088
638.500, 0.088
638.600, 0.096
638.700, 0.096
638.800, 0.088
638.900, 0.087
639.000, 0.095
639.100, 0.094
639.200, 0.099
639.300, 0.092
639.400, 0.105
639.500, 0.102
639.600, 0.107
639.700, 0.110
639.800, 0.108
639.900, 0.098
640.000, 0.094
640.100, 0.102
640.200, 0.095
640.300, 0.085
640.400, 0.095
640.500, 0.099
640.600, 0.102
640.700, 0.100
640.800, 0.106
640.900, 0.107
641.000, 0.103
641.100, 0.106
641.200, 0.104
641.300, 0.089
641.400, 0.094
641.500, 0.091
641.600, 0.098
641.700, 0.092
641.800, 0.105
641.900, 0.094
642.000, 0.092
642.100, 0.089
642.200, 0.096
642.300, 0.094
642.400, 0.096
642.500, 0.089
642.600, 0.096
642.700, 0.096
642.800, 0.107
642.900, 0.092
643.000, 0.093
643.100, 0.089
643.200, 0.089
643.300, 0.094
643.400, 0.094
643.500, 0.098
643.600, 0.095
643.700, 0.090
643.800, 0.088
643.900, 0.085
644.000, 0.089
644.100, 0.099
644.200, 0.089
644.300, 0.095
644.400, 0.089
644.500, 0.093
644.600, 0.091
644.700, 0.085
644.800, 0.092
644.900, 0.092
645.000, 0.088
645.100, 0.089
645.200, 0.089
645.300, 0.085
645.400, 0.090
645.500, 0.083
645.600, 0.095
645.700, 0.090
645.800, 0.084
645.900, 0.082
646.000, 0.090
646.100, 0.085
646.200, 0.091
646.300, 0.082
646.400, 0.080
646.500, 0.089
646.600, 0.088
646.700, 0.089
646.800, 0.085
646.900, 0.086
647.000, 0.088
647.100, 0.080
647.200, 0.089
647.300, 0.083
647.400, 0.087
647.500, 0.091
647.600, 0.084
647.700, 0.101
647.800, 0.100
647.900, 0.096
648.000, 0.092
648.100, 0.100
648.200, 0.097
648.300, 0.101
648.400, 0.099
648.500, 0.100
648.600, 0.099
648.700, 0.094
648.800, 0.085
648.900, 0.096
649.000, 0.087
649.100, 0.089
649.200, 0.095
649.300, 0.095
649.400, 0.086
649.500, 0.088
649.600, 0.088
649.700, 0.098
649.800, 0.092
649.900, 0.095
650.000, 0.092
650.100, 0.077
650.200, 0.085
650.300, 0.082
650.400, 0.093
650.500, 0.081
650.600, 0.078
650.700, 0.088
650.800, 0.092
650.900, 0.092
651.000, 0.081
651.100, 0.083
651.200, 0.079
651.300, 0.090
651.400, 0.084
651.500, 0.086
651.600, 0.086
651.700, 0.096
651.800, 0.083
651.900, 0.093
652.000, 0.092
652.100, 0.084
652.200, 0.091
652.300, 0.090
652.400, 0.089
652.500, 0.085
652.600, 0.087
652.700, 0.082
652.800, 0.081
652.900, 0.088
653.000, 0.092
653.100, 0.087
653.200, 0.085
653.300, 0.083
653.400, 0.085
653.500, 0.083
653.600, 0.081
653.700, 0.086
653.800, 0.094
653.900, 0.093
654.000, 0.090
654.100, 0.091
654.200, 0.098
654.300, 0.097
654.400, 0.077
654.500, 0.087
654.600, 0.096
654.700, 0.087
654.800, 0.080
654.900, 0.088
655.000, 0.086
655.100, 0.089
655.200, 0.089
655.300, 0.087
655.400, 0.091
655.500, 0.096
655.600, 0.082
655.700, 0.088
655.800, 0.089
655.900, 0.091
656.000, 0.092
656.100, 0.094
656.200, 0.090
656.300, 0.085
656.400, 0.081
656.500, 0.078
656.600, 0.094
656.700, 0.101
656.800, 0.077
656.900, 0.079
657.000, 0.076
657.100, 0.090
657.200, 0.096
657.300, 0.087
657.400, 0.087
657.500, 0.099
657.600, 0.088
657.700, 0.086
657.800, 0.086
657.900, 0.089
658.000, 0.088
658.100, 0.086
658.200, 0.086
658.300, 0.091
658.400, 0.084
658.500, 0.083
658.600, 0.084
658.700, 0.084
658.800, 0.091
658.900, 0.093
659.000, 0.095
659.100, 0.080
659.200, 0.084
659.300, 0.081
659.400, 0.082
659.500, 0.081
659.600, 0.091
659.700, 0.097
659.800, 0.103
659.900, 0.105
660.000, 0.086
660.100, 0.088
660.200, 0.080
660.300, 0.085
660.400, 0.086
660.500, 0.087
660.600, 0.091
660.700, 0.088
660.800, 0.095
660.900, 0.089
661.000, 0.095
661.100, 0.088
661.200, 0.100
661.300, 0.093
661.400, 0.095
661.500, 0.092
661.600, 0.093
661.700, 0.095
661.800, 0.101
661.900, 0.094
662.000, 0.096
662.100, 0.094
662.200, 0.094
662.300, 0.088
662.400, 0.095
662.500, 0.093
662.600, 0.092
662.700, 0.098
662.800, 0.090
662.900, 0.088
663.000, 0.096
663.100, 0.106
663.200, 0.094
663.300, 0.095
663.400, 0.099
663.500, 0.092
663.600, 0.085
663.700, 0.087
663.800, 0.087
663.900, 0.084
664.000, 0.085
664.100, 0.089
664.200, 0.090
664.300, 0.093
664.400, 0.086
664.500, 0.095
664.600, 0.094
664.700, 0.093
664.800, 0.092
664.900, 0.096
665.000, 0.090
665.100, 0.090
665.200, 0.082
665.300, 0.084
665.400, 0.085
665.500, 0.080
665.600, 0.087
665.700, 0.086
665.800, 0.085
665.900, 0.082
666.000, 0.085
666.100, 0.084
666.200, 0.086
666.300, 0.081
666.400, 0.084
666.500, 0.091
666.600, 0.084
666.700, 0.088
666.800, 0.089
666.900, 0.087
667.000, 0.084
667.100, 0.087
667.200, 0.083
667.300, 0.080
667.400, 0.082
667.500, 0.086
667.600, 0.092
667.700, 0.085
667.800, 0.086
667.900, 0.085
668.000, 0.087
668.100, 0.088
668.200, 0.086
668.300, 0.090
668.400, 0.090
668.500, 0.092
668.600, 0.092
668.700, 0.094
668.800, 0.094
668.900, 0.087
669.000, 0.090
669.100, 0.099
669.200, 0.086
669.300, 0.086
669.400, 0.086
669.500, 0.085
669.600, 0.092
669.700, 0.089
669.800, 0.080
669.900, 0.086
670.000, 0.085
670.100, 0.085
670.200, 0.093
670.300, 0.082
670.400, 0.082
670.500, 0.084
670.600, 0.091
670.700, 0.090
670.800, 0.084
670.900, 0.083
671.000, 0.083
671.100, 0.092
671.200, 0.083
671.300, 0.088
671.400, 0.091
671.500, 0.078
671.600, 0.081
671.700, 0.083
671.800, 0.084
671.900, 0.085
672.000, 0.076
672.100, 0.089
672.200, 0.088
672.300, 0.089
672.400, 0.091
672.500, 0.094
672.600, 0.094
672.700, 0.095
672.800, 0.084
672.900, 0.080
673.000, 0.082
673.100, 0.081
673.200, 0.085
673.300, 0.085
673.400, 0.083
673.500, 0.088
673.600, 0.085
673.700, 0.090
673.800, 0.082
673.900, 0.085
674.000, 0.095
674.100, 0.088
674.200, 0.093
674.300, 0.089
674.400, 0.090
674.500, 0.088
674.600, 0.090
674.700, 0.091
674.800, 0.100
674.900, 0.092
675.000, 0.097
675.100, 0.085
675.200, 0.092
675.300, 0.096
675.400, 0.085
675.500, 0.084
675.600, 0.093
675.700, 0.095
675.800, 0.086
675.900, 0.085
676.000, 0.080
676.100, 0.080
676.200, 0.079
676.300, 0.100
676.400, 0.084
676.500, 0.088
676.600, 0.093
676.700, 0.084
676.800, 0.087
676.900, 0.083
677.000, 0.092
677.100, 0.090
677.200, 0.078
677.300, 0.078
677.400, 0.083
677.500, 0.092
677.600, 0.088
677.700, 0.089
677.800, 0.081
677.900, 0.083
678.000, 0.080
678.100, 0.098
678.200, 0.088
678.300, 0.088
678.400, 0.087
678.500, 0.082
678.600, 0.088
678.700, 0.080
678.800, 0.085
678.900, 0.088
679.000, 0.085
679.100, 0.089
679.200, 0.086
679.300, 0.094
679.400, 0.085
679.500, 0.084
679.600, 0.088
679.700, 0.081
679.800, 0.079
679.900, 0.087
680.000, 0.077
680.100, 0.082
680.200, 0.089
680.300, 0.079
680.400, 0.074
680.500, 0.071
680.600, 0.082
680.700, 0.081
680.800, 0.075
680.900, 0.092
681.000, 0.084
681.100, 0.088
681.200, 0.092
681.300, 0.081
681.400, 0.085
681.500, 0.082
681.600, 0.082
681.700, 0.077
681.800, 0.082
681.900, 0.084
682.000, 0.081
682.100, 0.074
682.200, 0.091
682.300, 0.083
682.400, 0.085
682.500, 0.081
682.600, 0.078
682.700, 0.081
682.800, 0.088
682.900, 0.081
683.000, 0.083
683.100, 0.096
683.200, 0.084
683.300, 0.090
683.400, 0.087
683.500, 0.091
683.600, 0.085
683.700, 0.084
683.800, 0.083
683.900, 0.077
684.000, 0.093
684.100, 0.085
684.200, 0.078
684.300, 0.086
684.400, 0.083
684.500, 0.080
684.600, 0.087
684.700, 0.086
684.800, 0.080
684.900, 0.085
685.000, 0.082
685.100, 0.077
685.200, 0.079
685.300, 0.086
685.400, 0.083
685.500, 0.081
685.600, 0.087
685.700, 0.089
685.800, 0.084
685.900, 0.088
686.000, 0.080
686.100, 0.079
686.200, 0.084
686.300, 0.084
686.400, 0.082
686.500, 0.083
686.600, 0.082
686.700, 0.081
686.800, 0.089
686.900, 0.084
687.000, 0.091
687.100, 0.077
687.200, 0.083
687.300, 0.080
687.400, 0.087
687.500, 0.081
687.600, 0.082
687.700, 0.083
687.800, 0.084
687.900, 0.090
688.000, 0.093
688.100, 0.092
688.200, 0.080
688.300, 0.092
688.400, 0.095
688.500, 0.091
688.600, 0.087
688.700, 0.089
688.800, 0.086
688.900, 0.086
689.000, 0.080
689.100, 0.082
689.200, 0.093
689.300, 0.081
689.400, 0.096
689.500, 0.081
689.600, 0.081
689.700, 0.081
689.800, 0.088
689.900, 0.077
690.000, 0.084
690.100, 0.087
690.200, 0.076
690.300, 0.078
690.400, 0.090
690.500, 0.081
690.600, 0.080
690.700, 0.080
690.800, 0.080
690.900, 0.085
691.000, 0.089
691.100, 0.087
691.200, 0.087
691.300, 0.083
691.400, 0.083
691.500, 0.088
691.600, 0.079
691.700, 0.082
691.800, 0.086
691.900, 0.083
692.000, 0.077
692.100, 0.083
692.200, 0.081
692.300, 0.091
692.400, 0.090
692.500, 0.082
692.600, 0.086
692.700, 0.084
692.800, 0.089
692.900, 0.081
693.000, 0.084
693.100, 0.084
693.200, 0.081
693.300, 0.086
693.400, 0.094
693.500, 0.080
693.600, 0.081
693.700, 0.078
693.800, 0.077
693.900, 0.077
694.000, 0.091
694.100, 0.087
694.200, 0.096
694.300, 0.085
694.400, 0.087
694.500, 0.094
694.600, 0.087
694.700, 0.089
694.800, 0.087
694.900, 0.092
695.000, 0.082
695.100, 0.096
695.200, 0.089
695.300, 0.094
695.400, 0.094
695.500, 0.090
695.600, 0.098
695.700, 0.084
695.800, 0.086
695.900, 0.091
696.000, 0.089
696.100, 0.092
696.200, 0.086
696.300, 0.093
696.400, 0.089
696.500, 0.097
696.600, 0.086
696.700, 0.092
696.800, 0.090
696.900, 0.098
697.000, 0.092
697.100, 0.086
697.200, 0.091
697.300, 0.099
697.400, 0.093
697.500, 0.096
697.600, 0.093
697.700, 0.087
697.800, 0.093
697.900, 0.089
698.000, 0.088
698.100, 0.087
698.200, 0.086
698.300, 0.089
698.400, 0.088
698.500, 0.091
698.600, 0.088
698.700, 0.082
698.800, 0.083
698.900, 0.079
699.000, 0.089
699.100, 0.089
699.200, 0.087
699.300, 0.086
699.400, 0.100
699.500, 0.093
699.600, 0.098
699.700, 0.093
699.800, 0.088
699.900, 0.092
700.000, 0.086
700.100, 0.078
700.200, 0.083
700.300, 0.085
700.400, 0.084
700.500, 0.082
700.600, 0.080
700.700, 0.085
700.800, 0.099
700.900, 0.095
701.000, 0.095
701.100, 0.094
701.200, 0.091
701.300, 0.084
701.400, 0.080
701.500, 0.081
701.600, 0.081
701.700, 0.082
701.800, 0.078
701.900, 0.076
702.000, 0.079
702.100, 0.080
702.200, 0.085
702.300, 0.081
702.400, 0.082
702.500, 0.081
702.600, 0.075
702.700, 0.081
702.800, 0.076
702.900, 0.079
703.000, 0.086
703.100, 0.080
703.200, 0.079
703.300, 0.080
703.400, 0.087
703.500, 0.089
703.600, 0.079
703.700, 0.091
703.800, 0.098
703.900, 0.083
704.000, 0.076
704.100, 0.081
704.200, 0.077
704.300, 0.071
704.400, 0.080
704.500, 0.078
704.600, 0.081
704.700, 0.090
704.800, 0.079
704.900, 0.081
705.000, 0.078
705.100, 0.069
705.200, 0.085
705.300, 0.085
705.400, 0.089
705.500, 0.086
705.600, 0.087
705.700, 0.078
705.800, 0.085
705.900, 0.092
706.000, 0.081
706.100, 0.081
706.200, 0.083
706.300, 0.076
706.400, 0.092
706.500, 0.096
706.600, 0.084
706.700, 0.089
706.800, 0.083
706.900, 0.094
707.000, 0.093
707.100, 0.094
707.200, 0.100
707.300, 0.101
707.400, 0.103
707.500, 0.091
707.600, 0.092
707.700, 0.087
707.800, 0.079
707.900, 0.100
708.000, 0.087
708.100, 0.079
708.200, 0.082
708.300, 0.086
708.400, 0.084
708.500, 0.088
708.600, 0.079
708.700, 0.076
708.800, 0.098
708.900, 0.086
709.000, 0.081
709.100, 0.073
709.200, 0.074
709.300, 0.079
709.400, 0.070
709.500, 0.078
709.600, 0.082
709.700, 0.080
709.800, 0.088
709.900, 0.071
710.000, 0.071
710.100, 0.082
710.200, 0.083
710.300, 0.072
710.400, 0.074
710.500, 0.074
710.600, 0.084
710.700, 0.079
710.800, 0.080
710.900, 0.079
711.000, 0.083
711.100, 0.084
711.200, 0.087
711.300, 0.085
711.400, 0.084
711.500, 0.075
711.600, 0.082
711.700, 0.080
711.800, 0.079
711.900, 0.083
712.000, 0.082
712.100, 0.088
712.200, 0.083
712.300, 0.094
712.400, 0.082
712.500, 0.101
712.600, 0.093
712.700, 0.084
712.800, 0.075
712.900, 0.083
713.000, 0.084
713.100, 0.073
713.200, 0.078
713.300, 0.081
713.400, 0.084
713.500, 0.078
713.600, 0.082
713.700, 0.094
713.800, 0.081
713.900, 0.085
714.000, 0.083
714.100, 0.082
714.200, 0.079
714.300, 0.083
714.400, 0.084
714.500, 0.079
714.600, 0.084
714.700, 0.084
714.800, 0.075
714.900, 0.077
715.000, 0.087
715.100, 0.080
715.200, 0.077
715.300, 0.083
715.400, 0.087
715.500, 0.082
715.600, 0.098
715.700, 0.095
715.800, 0.085
715.900, 0.096
716.000, 0.090
716.100, 0.091
716.200, 0.075
716.300, 0.084
716.400, 0.093
716.500, 0.093
716.600, 0.086
716.700, 0.105
716.800, 0.098
716.900, 0.098
717.000, 0.094
717.100, 0.098
717.200, 0.084
717.300, 0.090
717.400, 0.100
717.500, 0.090
717.600, 0.084
717.700, 0.086
717.800, 0.084
717.900, 0.075
718.000, 0.081
718.100, 0.090
718.200, 0.081
718.300, 0.079
718.400, 0.084
718.500, 0.087
718.600, 0.084
718.700, 0.072
718.800, 0.076
718.900, 0.076
719.000, 0.080
719.100, 0.082
719.200, 0.082
719.300, 0.082
719.400, 0.085
719.500, 0.086
719.600, 0.079
719.700, 0.085
719.800, 0.074
719.900, 0.071
720.000, 0.080
720.100, 0.077
720.200, 0.078
720.300, 0.083
720.400, 0.081
720.500, 0.075
720.600, 0.073
720.700, 0.075
720.800, 0.076
720.900, 0.075
721.000, 0.078
721.100, 0.071
721.200, 0.083
721.300, 0.081
721.400, 0.086
721.500, 0.085
721.600, 0.093
721.700, 0.081
721.800, 0.093
721.900, 0.090
722.000, 0.078
722.100, 0.075
722.200, 0.075
722.300, 0.084
722.400, 0.093
722.500, 0.085
722.600, 0.088
722.700, 0.081
722.800, 0.094
722.900, 0.085
723.000, 0.082
723.100, 0.079
723.200, 0.084
723.300, 0.075
723.400, 0.081
723.500, 0.080
723.600, 0.085
723.700, 0.074
723.800, 0.075
723.900, 0.071
724.000, 0.073
724.100, 0.081
724.200, 0.078
724.300, 0.072
724.400, 0.086
724.500, 0.082
724.600, 0.077
724.700, 0.078
724.800, 0.100
724.900, 0.081
725.000, 0.088
725.100, 0.082
725.200, 0.077
725.300, 0.084
725.400, 0.074
725.500, 0.084
725.600, 0.099
725.700, 0.089
725.800, 0.086
725.900, 0.083
726.000, 0.088
726.100, 0.084
726.200, 0.086
726.300, 0.085
726.400, 0.081
726.500, 0.079
726.600, 0.084
726.700, 0.087
726.800, 0.092
726.900, 0.083
727.000, 0.091
727.100, 0.085
727.200, 0.079
727.300, 0.080
727.400, 0.086
727.500, 0.079
727.600, 0.085
727.700, 0.077
727.800, 0.081
727.900, 0.081
728.000, 0.088
728.100, 0.084
728.200, 0.079
728.300, 0.090
728.400, 0.084
728.500, 0.092
728.600, 0.091
728.700, 0.078
728.800, 0.079
728.900, 0.086
729.000, 0.075
729.100, 0.090
729.200, 0.087
729.300, 0.083
729.400, 0.089
729.500, 0.084
729.600, 0.080
729.700, 0.079
729.800, 0.077
729.900, 0.085
730.000, 0.082
730.100, 0.087
730.200, 0.081
730.300, 0.086
730.400, 0.084
730.500, 0.076
730.600, 0.076
730.700, 0.085
730.800, 0.080
730.900, 0.080
731.000, 0.079
731.100, 0.084
731.200, 0.082
731.300, 0.087
731.400, 0.074
731.500, 0.083
731.600, 0.087
731.700, 0.080
731.800, 0.077
731.900, 0.085
732.000, 0.085
732.100, 0.094
732.200, 0.090
732.300, 0.080
732.400, 0.091
732.500, 0.089
732.600, 0.083
732.700, 0.088
732.800, 0.084
732.900, 0.079
733.000, 0.092
733.100, 0.078
733.200, 0.087
733.300, 0.085
733.400, 0.085
733.500, 0.080
733.600, 0.086
733.700, 0.079
733.800, 0.079
733.900, 0.093
734.000, 0.087
734.100, 0.089
734.200, 0.096
734.300, 0.089
734.400, 0.086
734.500, 0.087
734.600, 0.094
734.700, 0.089
734.800, 0.092
734.900, 0.087
735.000, 0.095
735.100, 0.082
735.200, 0.079
735.300, 0.089
735.400, 0.093
735.500, 0.087
735.600, 0.094
735.700, 0.089
735.800, 0.086
735.900, 0.086
736.000, 0.100
736.100, 0.092
736.200, 0.076
736.300, 0.079
736.400, 0.083
736.500, 0.095
736.600, 0.086
736.700, 0.083
736.800, 0.086
736.900, 0.086
737.000, 0.082
737.100, 0.091
737.200, 0.086
737.300, 0.080
737.400, 0.089
737.500, 0.092
737.600, 0.093
737.700, 0.089
737.800, 0.087
737.900, 0.081
738.000, 0.090
738.100, 0.079
738.200, 0.077
738.300, 0.087
738.400, 0.087
738.500, 0.090
738.600, 0.089
738.700, 0.087
738.800, 0.086
738.900, 0.099
739.000, 0.099
739.100, 0.084
739.200, 0.087
739.300, 0.087
739.400, 0.078
739.500, 0.080
739.600, 0.080
739.700, 0.076
739.800, 0.079
739.900, 0.082
740.000, 0.082
740.100, 0.079
740.200, 0.086
740.300, 0.088
740.400, 0.085
740.500, 0.084
740.600, 0.092
740.700, 0.075
740.800, 0.086
740.900, 0.090
741.000, 0.082
741.100, 0.081
741.200, 0.084
741.300, 0.092
741.400, 0.084
741.500, 0.093
741.600, 0.087
741.700, 0.082
741.800, 0.076
741.900, 0.081
742.000, 0.082
742.100, 0.086
742.200, 0.078
742.300, 0.088
742.400, 0.091
742.500, 0.083
742.600, 0.084
742.700, 0.081
742.800, 0.090
742.900, 0.083
743.000, 0.088
743.100, 0.086
743.200, 0.084
743.300, 0.085
743.400, 0.084
743.500, 0.083
743.600, 0.096
743.700, 0.099
743.800, 0.092
743.900, 0.084
744.000, 0.097
744.100, 0.099
744.200, 0.085
744.300, 0.088
744.400, 0.091
744.500, 0.088
744.600, 0.086
744.700, 0.075
744.800, 0.087
744.900, 0.080
745.000, 0.092
745.100, 0.093
745.200, 0.096
745.300, 0.091
745.400, 0.080
745.500, 0.081
745.600, 0.081
745.700, 0.085
745.800, 0.086
745.900, 0.080
746.000, 0.082
746.100, 0.084
746.200, 0.076
746.300, 0.093
746.400, 0.089
746.500, 0.086
746.600, 0.085
746.700, 0.081
746.800, 0.081
746.900, 0.085
747.000, 0.088
747.100, 0.092
747.200, 0.084
747.300, 0.083
747.400, 0.083
747.500, 0.092
747.600, 0.086
747.700, 0.089
747.800, 0.087
747.900, 0.095
748.000, 0.091
748.100, 0.084
748.200, 0.080
748.300, 0.091
748.400, 0.091
748.500, 0.082
748.600, 0.083
748.700, 0.103
748.800, 0.092
748.900, 0.092
749.000, 0.087
749.100, 0.084
749.200, 0.083
749.300, 0.081
749.400, 0.090
749.500, 0.088
749.600, 0.085
749.700, 0.087
749.800, 0.098
749.900, 0.086
750.000, 0.096
750.100, 0.087
750.200, 0.092
750.300, 0.093
750.400, 0.089
750.500, 0.093
750.600, 0.092
750.700, 0.096
750.800, 0.094
750.900, 0.083
751.000, 0.088
751.100, 0.092
751.200, 0.096
751.300, 0.099
751.400, 0.090
751.500, 0.090
751.600, 0.101
751.700, 0.099
751.800, 0.089
751.900, 0.094
752.000, 0.097
752.100, 0.105
752.200, 0.092
752.300, 0.088
752.400, 0.082
752.500, 0.084
752.600, 0.089
752.700, 0.094
752.800, 0.098
752.900, 0.098
753.000, 0.088
753.100, 0.094
753.200, 0.088
753.300, 0.094
753.400, 0.096
753.500, 0.088
753.600, 0.096
753.700, 0.099
753.800, 0.095
753.900, 0.091
754.000, 0.086
754.100, 0.088
754.200, 0.089
754.300, 0.087
754.400, 0.091
754.500, 0.097
754.600, 0.095
754.700, 0.098
754.800, 0.091
754.900, 0.092
755.000, 0.092
755.100, 0.089
755.200, 0.090
755.300, 0.098
755.400, 0.098
755.500, 0.091
755.600, 0.093
755.700, 0.084
755.800, 0.080
755.900, 0.081
756.000, 0.087
756.100, 0.090
756.200, 0.088
756.300, 0.092
756.400, 0.084
756.500, 0.096
756.600, 0.086
756.700, 0.075
756.800, 0.090
756.900, 0.085
757.000, 0.090
757.100, 0.085
757.200, 0.085
757.300, 0.092
757.400, 0.087
757.500, 0.090
757.600, 0.092
757.700, 0.087
757.800, 0.093
757.900, 0.084
758.000, 0.087
758.100, 0.088
758.200, 0.088
758.300, 0.082
758.400, 0.088
758.500, 0.093
758.600, 0.086
758.700, 0.092
758.800, 0.085
758.900, 0.084
759.000, 0.082
759.100, 0.087
759.200, 0.076
759.300, 0.080
759.400, 0.084
759.500, 0.093
759.600, 0.086
759.700, 0.085
759.800, 0.093
759.900, 0.087
760.000, 0.084
760.100, 0.084
760.200, 0.093
760.300, 0.083
760.400, 0.095
760.500, 0.098
760.600, 0.098
760.700, 0.092
760.800, 0.085
760.900, 0.097
761.000, 0.088
761.100, 0.089
761.200, 0.089
761.300, 0.091
761.400, 0.093
761.500, 0.087
761.600, 0.087
761.700, 0.094
761.800, 0.083
761.900, 0.093
762.000, 0.089
762.100, 0.086
762.200, 0.090
762.300, 0.098
762.400, 0.093
762.500, 0.092
762.600, 0.088
762.700, 0.088
762.800, 0.087
762.900, 0.086
763.000, 0.085
763.100, 0.087
763.200, 0.084
763.300, 0.087
763.400, 0.088
763.500, 0.090
763.600, 0.083
763.700, 0.097
763.800, 0.095
763.900, 0.089
764.000, 0.093
764.100, 0.090
764.200, 0.086
764.300, 0.088
764.400, 0.092
764.500, 0.084
764.600, 0.086
764.700, 0.092
764.800, 0.088
764.900, 0.090
765.000, 0.084
765.100, 0.091
765.200, 0.087
765.300, 0.091
765.400, 0.091
765.500, 0.094
765.600, 0.096
765.700, 0.083
765.800, 0.083
765.900, 0.085
766.000, 0.089
766.100, 0.075
766.200, 0.089
766.300, 0.089
766.400, 0.089
766.500, 0.081
766.600, 0.089
766.700, 0.092
766.800, 0.088
766.900, 0.087
767.000, 0.080
767.100, 0.085
767.200, 0.087
767.300, 0.085
767.400, 0.081
767.500, 0.089
767.600, 0.088
767.700, 0.082
767.800, 0.083
767.900, 0.079
768.000, 0.085
768.100, 0.086
768.200, 0.081
768.300, 0.082
768.400, 0.089
768.500, 0.084
768.600, 0.083
768.700, 0.083
768.800, 0.087
768.900, 0.087
769.000, 0.083
769.100, 0.092
769.200, 0.086
769.300, 0.092
769.400, 0.088
769.500, 0.088
769.600, 0.088
769.700, 0.088
769.800, 0.096
769.900, 0.096
770.000, 0.092
770.100, 0.091
770.200, 0.089
770.300, 0.093
770.400, 0.090
770.500, 0.091
770.600, 0.091
770.700, 0.094
770.800, 0.093
770.900, 0.088
771.000, 0.087
771.100, 0.083
771.200, 0.096
771.300, 0.084
771.400, 0.090
771.500, 0.095
771.600, 0.087
771.700, 0.098
771.800, 0.086
771.900, 0.096
772.000, 0.091
772.100, 0.091
772.200, 0.091
772.300, 0.093
772.400, 0.085
772.500, 0.082
772.600, 0.092
772.700, 0.091
772.800, 0.084
772.900, 0.082
773.000, 0.093
773.100, 0.097
773.200, 0.095
773.300, 0.093
773.400, 0.088
773.500, 0.098
773.600, 0.095
773.700, 0.093
773.800, 0.096
773.900, 0.098
774.000, 0.096
774.100, 0.097
774.200, 0.093
774.300, 0.093
774.400, 0.090
774.500, 0.089
774.600, 0.101
774.700, 0.095
774.800, 0.093
774.900, 0.088
775.000, 0.093
775.100, 0.089
775.200, 0.094
775.300, 0.093
775.400, 0.098
775.500, 0.093
775.600, 0.102
775.700, 0.091
775.800, 0.093
775.900, 0.090
776.000, 0.095
776.100, 0.090
776.200, 0.095
776.300, 0.083
776.400, 0.089
776.500, 0.089
776.600, 0.082
776.700, 0.087
776.800, 0.092
776.900, 0.088
777.000, 0.092
777.100, 0.093
777.200, 0.086
777.300, 0.092
777.400, 0.093
777.500, 0.092
777.600, 0.078
777.700, 0.090
777.800, 0.086
777.900, 0.094
778.000, 0.091
778.100, 0.097
778.200, 0.092
778.300, 0.097
778.400, 0.091
778.500, 0.097
778.600, 0.087
778.700, 0.095
778.800, 0.086
778.900, 0.089
779.000, 0.089
779.100, 0.088
779.200, 0.082
779.300, 0.090
779.400, 0.087
779.500, 0.087
779.600, 0.081
779.700, 0.087
779.800, 0.093
779.900, 0.081
780.000, 0.092
780.100, 0.093
780.200, 0.090
780.300, 0.081
780.400, 0.081
780.500, 0.090
780.600, 0.092
780.700, 0.080
780.800, 0.082
780.900, 0.083
781.000, 0.082
781.100, 0.086
781.200, 0.091
781.300, 0.088
781.400, 0.093
781.500, 0.097
781.600, 0.091
781.700, 0.095
781.800, 0.085
781.900, 0.091
782.000, 0.085
782.100, 0.088
782.200, 0.088
782.300, 0.086
782.400, 0.084
782.500, 0.092
782.600, 0.087
782.700, 0.090
782.800, 0.085
782.900, 0.104
783.000, 0.099
783.100, 0.084
783.200, 0.089
783.300, 0.101
783.400, 0.086
783.500, 0.086
783.600, 0.090
783.700, 0.091
783.800, 0.087
783.900, 0.090
784.000, 0.092
784.100, 0.095
784.200, 0.091
784.300, 0.095
784.400, 0.092
784.500, 0.080
784.600, 0.081
784.700, 0.088
784.800, 0.089
784.900, 0.090
785.000, 0.088
785.100, 0.086
785.200, 0.091
785.300, 0.090
785.400, 0.082
785.500, 0.089
785.600, 0.083
785.700, 0.090
785.800, 0.086
785.900, 0.089
786.000, 0.088
786.100, 0.084
786.200, 0.086
786.300, 0.090
786.400, 0.097
786.500, 0.087
786.600, 0.095
786.700, 0.087
786.800, 0.083
786.900, 0.099
787.000, 0.088
787.100, 0.083
787.200, 0.082
787.300, 0.087
787.400, 0.086
787.500, 0.084
787.600, 0.086
787.700, 0.089
787.800, 0.089
787.900, 0.088
788.000, 0.079
788.100, 0.080
788.200, 0.092
788.300, 0.090
788.400, 0.092
788.500, 0.086
788.600, 0.094
788.700, 0.084
788.800, 0.085
788.900, 0.089
789.000, 0.086
789.100, 0.084
789.200, 0.083
789.300, 0.085
789.400, 0.088
789.500, 0.089
789.600, 0.082
789.700, 0.094
789.800, 0.090
789.900, 0.093
790.000, 0.083
790.100, 0.084
790.200, 0.084
790.300, 0.090
790.400, 0.090
790.500, 0.094
790.600, 0.092
790.700, 0.091
790.800, 0.090
790.900, 0.088
791.000, 0.091
791.100, 0.091
791.200, 0.096
791.300, 0.083
791.400, 0.099
791.500, 0.094
791.600, 0.086
791.700, 0.085
791.800, 0.086
791.900, 0.084
792.000, 0.089
792.100, 0.094
792.200, 0.096
792.300, 0.097
792.400, 0.090
792.500, 0.093
792.600, 0.084
792.700, 0.090
792.800, 0.101
792.900, 0.087
793.000, 0.097
793.100, 0.090
793.200, 0.100
793.300, 0.100
793.400, 0.089
793.500, 0.095
793.600, 0.087
793.700, 0.094
793.800, 0.085
793.900, 0.088
794.000, 0.084
794.100, 0.095
794.200, 0.086
794.300, 0.086
794.400, 0.090
794.500, 0.082
794.600, 0.079
794.700, 0.074
794.800, 0.079
794.900, 0.088
795.000, 0.100
795.100, 0.088
795.200, 0.082
795.300, 0.087
795.400, 0.083
795.500, 0.083
795.600, 0.075
795.700, 0.079
795.800, 0.082
795.900, 0.077
796.000, 0.076
796.100, 0.073
796.200, 0.080
796.300, 0.078
796.400, 0.080
796.500, 0.077
796.600, 0.081
796.700, 0.085
796.800, 0.078
796.900, 0.090
797.000, 0.084
797.100, 0.080
797.200, 0.085
797.300, 0.081
797.400, 0.077
797.500, 0.083
797.600, 0.085
797.700, 0.089
797.800, 0.093
797.900, 0.090
798.000, 0.086
798.100, 0.098
798.200, 0.080
798.300, 0.080
798.400, 0.082
798.500, 0.074
798.600, 0.083
798.700, 0.083
798.800, 0.074
798.900, 0.078
799.000, 0.078
799.100, 0.085
799.200, 0.087
799.300, 0.087
799.400, 0.077
799.500, 0.092
799.600, 0.086
799.700, 0.089
799.800, 0.085
799.900, 0.072
800.000, 0.077
800.100, 0.077
800.200, 0.079
800.300, 0.084
800.400, 0.092
800.500, 0.082
800.600, 0.085
800.700, 0.096
800.800, 0.095
800.900, 0.094
801.000, 0.086
801.100, 0.086
801.200, 0.085
801.300, 0.079
801.400, 0.096
801.500, 0.083
801.600, 0.079
801.700, 0.079
801.800, 0.087
801.900, 0.071
802.000, 0.082
802.100, 0.085
802.200, 0.087
802.300, 0.078
802.400, 0.087
802.500, 0.076
802.600, 0.079
802.700, 0.085
802.800, 0.080
802.900, 0.088
803.000, 0.076
803.100, 0.089
803.200, 0.085
803.300, 0.086
803.400, 0.085
803.500, 0.086
803.600, 0.091
803.700, 0.080
803.800, 0.080
803.900, 0.080
804.000, 0.076
804.100, 0.076
804.200, 0.070
804.300, 0.070
804.400, 0.069
804.500, 0.073
804.600, 0.080
804.700, 0.078
804.800, 0.078
804.900, 0.077
805.000, 0.076
805.100, 0.080
805.200, 0.079
805.300, 0.077
805.400, 0.076
805.500, 0.089
805.600, 0.079
805.700, 0.073
805.800, 0.079
805.900, 0.074
806.000, 0.083
806.100, 0.079
806.200, 0.076
806.300, 0.088
806.400, 0.080
806.500, 0.085
806.600, 0.089
806.700, 0.087
806.800, 0.088
806.900, 0.078
807.000, 0.084
807.100, 0.081
807.200, 0.070
807.300, 0.080
807.400, 0.081
807.500, 0.080
807.600, 0.078
807.700, 0.079
807.800, 0.072
807.900, 0.075
808.000, 0.075
808.100, 0.072
808.200, 0.082
808.300, 0.086
808.400, 0.085
808.500, 0.080
808.600, 0.084
808.700, 0.079
808.800, 0.071
808.900, 0.074
809.000, 0.086
809.100, 0.092
809.200, 0.085
809.300, 0.081
809.400, 0.092
809.500, 0.094
809.600, 0.087
809.700, 0.080
809.800, 0.082
809.900, 0.078
810.000, 0.082
810.100, 0.068
810.200, 0.079
810.300, 0.082
810.400, 0.087
810.500, 0.079
810.600, 0.080
810.700, 0.076
810.800, 0.086
810.900, 0.078
811.000, 0.087
811.100, 0.082
811.200, 0.077
811.300, 0.077
811.400, 0.094
811.500, 0.077
811.600, 0.072
811.700, 0.076
811.800, 0.083
811.900, 0.078
812.000, 0.081
812.100, 0.088
812.200, 0.080
812.300, 0.077
812.400, 0.070
812.500, 0.090
812.600, 0.081
812.700, 0.073
812.800, 0.082
812.900, 0.082
813.000, 0.084
813.100, 0.081
813.200, 0.076
813.300, 0.081
813.400, 0.078
813.500, 0.074
813.600, 0.079
813.700, 0.085
813.800, 0.077
813.900, 0.080
814.000, 0.080
814.100, 0.082
814.200, 0.087
814.300, 0.084
814.400, 0.087
814.500, 0.082
814.600, 0.084
814.700, 0.081
814.800, 0.088
814.900, 0.078
815.000, 0.080
815.100, 0.075
815.200, 0.084
815.300, 0.080
815.400, 0.075
815.500, 0.085
815.600, 0.083
815.700, 0.077
815.800, 0.085
815.900, 0.086
816.000, 0.084
816.100, 0.083
816.200, 0.081
816.300, 0.075
816.400, 0.091
816.500, 0.086
816.600, 0.089
816.700, 0.077
816.800, 0.080
816.900, 0.082
817.000, 0.088
817.100, 0.078
817.200, 0.083
817.300, 0.081
817.400, 0.088
817.500, 0.083
817.600, 0.088
817.700, 0.084
817.800, 0.098
817.900, 0.081
818.000, 0.074
818.100, 0.071
818.200, 0.081
818.300, 0.073
818.400, 0.077
818.500, 0.085
818.600, 0.085
818.700, 0.077
818.800, 0.078
818.900, 0.080
819.000, 0.082
819.100, 0.074
819.200, 0.078
819.300, 0.083
819.400, 0.078
819.500, 0.079
819.600, 0.083
819.700, 0.087
819.800, 0.082
819.900, 0.087
820.000, 0.088
820.100, 0.080
820.200, 0.079
820.300, 0.085
820.400, 0.080
820.500, 0.081
820.600, 0.075
820.700, 0.084
820.800, 0.079
820.900, 0.082
821.000, 0.082
821.100, 0.076
821.200, 0.079
821.300, 0.076
821.400, 0.083
821.500, 0.088
821.600, 0.084
821.700, 0.084
821.800, 0.093
821.900, 0.091
822.000, 0.081
822.100, 0.088
822.200, 0.083
822.300, 0.087
822.400, 0.075
822.500, 0.081
822.600, 0.075
822.700, 0.078
822.800, 0.087
822.900, 0.085
823.000, 0.086
823.100, 0.084
823.200, 0.082
823.300, 0.091
823.400, 0.086
823.500, 0.090
823.600, 0.095
823.700, 0.079
823.800, 0.081
823.900, 0.086
824.000, 0.085
824.100, 0.078
824.200, 0.079
824.300, 0.089
824.400, 0.084
824.500, 0.093
824.600, 0.091
824.700, 0.088
824.800, 0.089
824.900, 0.083
825.000, 0.081
825.100, 0.079
825.200, 0.078
825.300, 0.075
825.400, 0.092
825.500, 0.092
825.600, 0.088
825.700, 0.087
825.800, 0.081
825.900, 0.087
826.000, 0.098
826.100, 0.092
826.200, 0.095
826.300, 0.088
826.400, 0.086
826.500, 0.084
826.600, 0.082
826.700, 0.082
826.800, 0.085
826.900, 0.092
827.000, 0.095
827.100, 0.088
827.200, 0.097
827.300, 0.092
827.400, 0.092
827.500, 0.093
827.600, 0.099
827.700, 0.093
827.800, 0.097
827.900, 0.087
828.000, 0.095
828.100, 0.087
828.200, 0.081
828.300, 0.089
828.400, 0.088
828.500, 0.092
828.600, 0.098
828.700, 0.097
828.800, 0.097
828.900, 0.096
829.000, 0.092
829.100, 0.085
829.200, 0.090
829.300, 0.083
829.400, 0.101
829.500, 0.101
829.600, 0.110
829.700, 0.089
829.800, 0.091
829.900, 0.090
830.000, 0.096
830.100, 0.093
830.200, 0.085
830.300, 0.090
830.400, 0.084
830.500, 0.089
830.600, 0.079
830.700, 0.078
830.800, 0.083
830.900, 0.086
831.000, 0.083
831.100, 0.091
831.200, 0.091
831.300, 0.087
831.400, 0.089
831.500, 0.088
831.600, 0.090
831.700, 0.078
831.800, 0.093
831.900, 0.084
832.000, 0.090
832.100, 0.088
832.200, 0.082
832.300, 0.076
832.400, 0.081
832.500, 0.081
832.600, 0.087
832.700, 0.087
832.800, 0.076
832.900, 0.083
833.000, 0.087
833.100, 0.083
833.200, 0.083
833.300, 0.078
833.400, 0.080
833.500, 0.088
833.600, 0.083
833.700, 0.081
833.800, 0.087
833.900, 0.085
834.000, 0.094
834.100, 0.092
834.200, 0.088
834.300, 0.087
834.400, 0.087
834.500, 0.084
834.600, 0.076
834.700, 0.081
834.800, 0.081
834.900, 0.090
835.000, 0.077
835.100, 0.085
835.200, 0.090
835.300, 0.083
835.400, 0.090
835.500, 0.087
835.600, 0.072
835.700, 0.094
835.800, 0.082
835.900, 0.082
836.000, 0.093
836.100, 0.085
836.200, 0.076
836.300, 0.073
836.400, 0.083
836.500, 0.075
836.600, 0.077
836.700, 0.080
836.800, 0.085
836.900, 0.074
837.000, 0.080
837.100, 0.081
837.200, 0.096
837.300, 0.093
837.400, 0.097
837.500, 0.085
837.600, 0.095
837.700, 0.097
837.800, 0.095
837.900, 0.082
838.000, 0.081
838.100, 0.081
838.200, 0.083
838.300, 0.083
838.400, 0.078
838.500, 0.074
838.600, 0.088
838.700, 0.081
838.800, 0.076
838.900, 0.077
839.000, 0.078
839.100, 0.086
839.200, 0.087
839.300, 0.079
839.400, 0.079
839.500, 0.083
839.600, 0.080
839.700, 0.069
839.800, 0.083
839.900, 0.080
840.000, 0.071
840.100, 0.077
840.200, 0.076
840.300, 0.072
840.400, 0.072
840.500, 0.082
840.600, 0.076
840.700, 0.074
840.800, 0.078
840.900, 0.076
841.000, 0.083
841.100, 0.078
841.200, 0.082
841.300, 0.080
841.400, 0.079
841.500, 0.082
841.600, 0.088
841.700, 0.080
841.800, 0.083
841.900, 0.086
842.000, 0.089
842.100, 0.087
842.200, 0.081
842.300, 0.085
842.400, 0.077
842.500, 0.093
842.600, 0.087
842.700, 0.081
842.800, 0.077
842.900, 0.077
843.000, 0.093
843.100, 0.077
843.200, 0.077
843.300, 0.074
843.400, 0.072
843.500, 0.075
843.600, 0.092
843.700, 0.097
843.800, 0.077
843.900, 0.074
844.000, 0.077
844.100, 0.079
844.200, 0.077
844.300, 0.083
844.400, 0.073
844.500, 0.083
844.600, 0.081
844.700, 0.085
844.800, 0.070
844.900, 0.072
845.000, 0.079
845.100, 0.088
845.200, 0.080
845.300, 0.081
845.400, 0.078
845.500, 0.073
845.600, 0.079
845.700, 0.080
845.800, 0.082
845.900, 0.077
846.000, 0.087
846.100, 0.085
846.200, 0.077
846.300, 0.082
846.400, 0.070
846.500, 0.082
846.600, 0.086
846.700, 0.079
846.800, 0.081
846.900, 0.080
847.000, 0.082
847.100, 0.095
847.200, 0.084
847.300, 0.087
847.400, 0.089
847.500, 0.094
847.600, 0.080
847.700, 0.084
847.800, 0.082
847.900, 0.081
848.000, 0.092
848.100, 0.084
848.200, 0.094
848.300, 0.083
848.400, 0.080
848.500, 0.071
848.600, 0.084
848.700, 0.087
848.800, 0.084
848.900, 0.088
849.000, 0.085
849.100, 0.077
849.200, 0.088
849.300, 0.084
849.400, 0.077
849.500, 0.075
849.600, 0.078
849.700, 0.080
849.800, 0.072
849.900, 0.068
850.000, 0.079
850.100, 0.075
850.200, 0.078
850.300, 0.076
850.400, 0.083
850.500, 0.072
850.600, 0.085
850.700, 0.088
850.800, 0.083
850.900, 0.071
851.000, 0.071
851.100, 0.081
851.200, 0.077
851.300, 0.078
851.400, 0.079
851.500, 0.075
851.600, 0.080
851.700, 0.078
851.800, 0.079
851.900, 0.086
852.000, 0.080
852.100, 0.074
852.200, 0.071
852.300, 0.079
852.400, 0.079
852.500, 0.080
852.600, 0.084
852.700, 0.089
852.800, 0.069
852.900, 0.077
853.000, 0.069
853.100, 0.070
853.200, 0.071
853.300, 0.078
853.400, 0.075
853.500, 0.079
853.600, 0.082
853.700, 0.072
853.800, 0.085
853.900, 0.084
854.000, 0.084
854.100, 0.082
854.200, 0.081
854.300, 0.080
854.400, 0.084
854.500, 0.081
854.600, 0.082
854.700, 0.069
854.800, 0.070
854.900, 0.076
855.000, 0.078
855.100, 0.073
855.200, 0.071
855.300, 0.074
855.400, 0.082
855.500, 0.076
855.600, 0.075
855.700, 0.075
855.800, 0.071
855.900, 0.070
856.000, 0.079
856.100, 0.084
856.200, 0.073
856.300, 0.072
856.400, 0.074
856.500, 0.069
856.600, 0.077
856.700, 0.069
856.800, 0.079
856.900, 0.081
857.000, 0.072
857.100, 0.073
857.200, 0.074
857.300, 0.079
857.400, 0.082
857.500, 0.083
857.600, 0.093
857.700, 0.083
857.800, 0.084
857.900, 0.075
858.000, 0.077
858.100, 0.079
858.200, 0.072
858.300, 0.076
858.400, 0.078
858.500, 0.083
858.600, 0.086
858.700, 0.079
858.800, 0.081
858.900, 0.088
859.000, 0.083
859.100, 0.076
859.200, 0.079
859.300, 0.072
859.400, 0.079
859.500, 0.078
859.600, 0.078
859.700, 0.087
859.800, 0.080
859.900, 0.070
860.000, 0.074
860.100, 0.070
860.200, 0.075
860.300, 0.069
860.400, 0.075
860.500, 0.077
860.600, 0.071
860.700, 0.077
860.800, 0.068
860.900, 0.067
861.000, 0.066
861.100, 0.076
861.200, 0.072
861.300, 0.073
861.400, 0.077
861.500, 0.088
861.600, 0.085
861.700, 0.077
861.800, 0.092
861.900, 0.076
862.000, 0.076
862.100, 0.083
862.200, 0.078
862.300, 0.087
862.400, 0.066
862.500, 0.078
862.600, 0.085
862.700, 0.075
862.800, 0.082
862.900, 0.085
863.000, 0.082
863.100, 0.081
863.200, 0.084
863.300, 0.082
863.400, 0.075
863.500, 0.084
863.600, 0.083
863.700, 0.079
863.800, 0.084
863.900, 0.075
864.000, 0.078
864.100, 0.071
864.200, 0.083
864.300, 0.068
864.400, 0.077
864.500, 0.078
864.600, 0.065
864.700, 0.078
864.800, 0.086
864.900, 0.074
865.000, 0.085
865.100, 0.083
865.200, 0.080
865.300, 0.069
865.400, 0.079
865.500, 0.076
865.600, 0.085
865.700, 0.079
865.800, 0.085
865.900, 0.075
866.000, 0.076
866.100, 0.085
866.200, 0.084
866.300, 0.074
866.400, 0.074
866.500, 0.078
866.600, 0.078
866.700, 0.085
866.800, 0.081
866.900, 0.085
867.000, 0.089
867.100, 0.075
867.200, 0.072
867.300, 0.072
867.400, 0.076
867.500, 0.071
867.600, 0.076
867.700, 0.080
867.800, 0.071
867.900, 0.081
868.000, 0.084
868.100, 0.076
868.200, 0.080
868.300, 0.076
868.400, 0.082
868.500, 0.075
868.600, 0.078
868.700, 0.084
868.800, 0.078
868.900, 0.083
869.000, 0.076
869.100, 0.075
869.200, 0.077
869.300, 0.078
869.400, 0.083
869.500, 0.079
869.600, 0.067
869.700, 0.074
869.800, 0.080
869.900, 0.070
870.000, 0.065
870.100, 0.070
870.200, 0.075
870.300, 0.074
870.400, 0.072
870.500, 0.074
870.600, 0.077
870.700, 0.079
870.800, 0.078
870.900, 0.076
871.000, 0.073
871.100, 0.072
871.200, 0.071
871.300, 0.074
871.400, 0.066
871.500, 0.077
871.600, 0.068
871.700, 0.080
871.800, 0.068
871.900, 0.073
872.000, 0.067
872.100, 0.073
872.200, 0.076
872.300, 0.070
872.400, 0.070
872.500, 0.071
872.600, 0.077
872.700, 0.076
872.800, 0.080
872.900, 0.068
873.000, 0.074
873.100, 0.073
873.200, 0.069
873.300, 0.075
873.400, 0.071
873.500, 0.070
873.600, 0.073
873.700, 0.072
873.800, 0.077
873.900, 0.083
874.000, 0.079
874.100, 0.081
874.200, 0.081
874.300, 0.084
874.400, 0.076
874.500, 0.084
874.600, 0.084
874.700, 0.075
874.800, 0.081
874.900, 0.079
875.000, 0.069
875.100, 0.073
875.200, 0.067
875.300, 0.075
875.400, 0.067
875.500, 0.069
875.600, 0.076
875.700, 0.085
875.800, 0.078
875.900, 0.076
876.000, 0.089
876.100, 0.083
876.200, 0.081
876.300, 0.084
876.400, 0.086
876.500, 0.086
876.600, 0.083
876.700, 0.094
876.800, 0.090
876.900, 0.084
877.000, 0.077
877.100, 0.086
877.200, 0.086
877.300, 0.083
877.400, 0.084
877.500, 0.077
877.600, 0.075
877.700, 0.076
877.800, 0.079
877.900, 0.079
878.000, 0.099
878.100, 0.073
878.200, 0.082
878.300, 0.073
878.400, 0.081
878.500, 0.079
878.600, 0.079
878.700, 0.083
878.800, 0.080
878.900, 0.079
879.000, 0.078
879.100, 0.077
879.200, 0.084
879.300, 0.100
879.400, 0.078
879.500, 0.080
879.600, 0.087
879.700, 0.082
879.800, 0.085
879.900, 0.088
880.000, 0.083
880.100, 0.074
880.200, 0.075
880.300, 0.081
880.400, 0.075
880.500, 0.076
880.600, 0.076
880.700, 0.082
880.800, 0.087
880.900, 0.085
881.000, 0.072
881.100, 0.071
881.200, 0.076
881.300, 0.089
881.400, 0.078
881.500, 0.076
881.600, 0.077
881.700, 0.082
881.800, 0.082
881.900, 0.074
882.000, 0.079
882.100, 0.074
882.200, 0.084
882.300, 0.075
882.400, 0.087
882.500, 0.075
882.600, 0.078
882.700, 0.074
882.800, 0.082
882.900, 0.084
883.000, 0.076
883.100, 0.074
883.200, 0.069
883.300, 0.070
883.400, 0.070
883.500, 0.074
883.600, 0.077
883.700, 0.080
883.800, 0.072
883.900, 0.080
884.000, 0.075
884.100, 0.079
884.200, 0.077
884.300, 0.084
884.400, 0.077
884.500, 0.088
884.600, 0.083
884.700, 0.075
884.800, 0.073
884.900, 0.082
885.000, 0.076
885.100, 0.081
885.200, 0.086
885.300, 0.080
885.400, 0.078
885.500, 0.074
885.600, 0.076
885.700, 0.079
885.800, 0.081
885.900, 0.073
886.000, 0.076
886.100, 0.075
886.200, 0.078
886.300, 0.080
886.400, 0.071
886.500, 0.077
886.600, 0.084
886.700, 0.089
886.800, 0.082
886.900, 0.082
887.000, 0.082
887.100, 0.072
887.200, 0.074
887.300, 0.082
887.400, 0.074
887.500, 0.072
887.600, 0.087
887.700, 0.079
887.800, 0.077
887.900, 0.076
888.000, 0.087
888.100, 0.082
888.200, 0.081
888.300, 0.083
888.400, 0.078
888.500, 0.079
888.600, 0.086
888.700, 0.085
888.800, 0.084
888.900, 0.075
889.000, 0.085
889.100, 0.081
889.200, 0.085
889.300, 0.089
889.400, 0.084
889.500, 0.080
889.600, 0.075
889.700, 0.081
889.800, 0.072
889.900, 0.071
890.000, 0.073
890.100, 0.079
890.200, 0.078
890.300, 0.086
890.400, 0.084
890.500, 0.083
890.600, 0.084
890.700, 0.082
890.800, 0.084
890.900, 0.078
891.000, 0.073
891.100, 0.075
891.200, 0.070
891.300, 0.076
891.400, 0.080
891.500, 0.069
891.600, 0.085
891.700, 0.083
891.800, 0.081
891.900, 0.081
892.000, 0.078
892.100, 0.069
892.200, 0.076
892.300, 0.077
892.400, 0.080
892.500, 0.079
892.600, 0.076
892.700, 0.077
892.800, 0.073
892.900, 0.078
893.000, 0.072
893.100, 0.070
893.200, 0.069
893.300, 0.064
893.400, 0.074
893.500, 0.070
893.600, 0.081
893.700, 0.078
893.800, 0.077
893.900, 0.086
894.000, 0.077
894.100, 0.087
894.200, 0.076
894.300, 0.085
894.400, 0.078
894.500, 0.079
894.600, 0.084
894.700, 0.083
894.800, 0.077
894.900, 0.087
895.000, 0.081
895.100, 0.084
895.200, 0.087
895.300, 0.090
895.400, 0.085
895.500, 0.091
895.600, 0.102
895.700, 0.087
895.800, 0.089
895.900, 0.088
896.000, 0.080
896.100, 0.080
896.200, 0.082
896.300, 0.085
896.400, 0.093
896.500, 0.079
896.600, 0.079
896.700, 0.076
896.800, 0.082
896.900, 0.078
897.000, 0.085
897.100, 0.075
897.200, 0.082
897.300, 0.084
897.400, 0.087
897.500, 0.089
897.600, 0.084
897.700, 0.086
897.800, 0.085
897.900, 0.087
898.000, 0.088
898.100, 0.092
898.200, 0.085
898.300, 0.085
898.400, 0.083
898.500, 0.083
898.600, 0.076
898.700, 0.079
898.800, 0.077
898.900, 0.078
899.000, 0.070
899.100, 0.076
899.200, 0.077
899.300, 0.076
899.400, 0.077
899.500, 0.070
899.600, 0.077
899.700, 0.073
899.800, 0.073
899.900, 0.085
900.000, 0.081
900.100, 0.077
900.200, 0.085
900.300, 0.083
900.400, 0.078
900.500, 0.078
900.600, 0.075
900.700, 0.075
900.800, 0.072
900.900, 0.077
901.000, 0.078
901.100, 0.078
901.200, 0.083
901.300, 0.074
901.400, 0.082
901.500, 0.077
901.600, 0.079
901.700, 0.074
901.800, 0.078
901.900, 0.076
902.000, 0.071
902.100, 0.077
902.200, 0.077
902.300, 0.079
902.400, 0.084
902.500, 0.085
902.600, 0.080
902.700, 0.078
902.800, 0.085
902.900, 0.066
903.000, 0.082
903.100, 0.073
903.200, 0.072
903.300, 0.069
903.400, 0.072
903.500, 0.074
903.600, 0.072
903.700, 0.079
903.800, 0.086
903.900, 0.075
904.000, 0.063
904.100, 0.071
904.200, 0.075
904.300, 0.080
904.400, 0.076
904.500, 0.072
904.600, 0.076
904.700, 0.074
904.800, 0.077
904.900, 0.080
905.000, 0.080
905.100, 0.085
905.200, 0.083
905.300, 0.077
905.400, 0.088
905.500, 0.076
905.600, 0.079
905.700, 0.085
905.800, 0.084
905.900, 0.076
906.000, 0.087
906.100, 0.084
906.200, 0.092
906.300, 0.090
906.400, 0.082
906.500, 0.083
906.600, 0.087
906.700, 0.081
906.800, 0.079
906.900, 0.082
907.000, 0.082
907.100, 0.079
907.200, 0.089
907.300, 0.085
907.400, 0.076
907.500, 0.080
907.600, 0.083
907.700, 0.074
907.800, 0.071
907.900, 0.085
908.000, 0.068
908.100, 0.086
908.200, 0.090
908.300, 0.092
908.400, 0.084
908.500, 0.081
908.600, 0.081
908.700, 0.082
908.800, 0.083
908.900, 0.089
909.000, 0.083
909.100, 0.088
909.200, 0.083
909.300, 0.078
909.400, 0.084
909.500, 0.078
909.600, 0.071
909.700, 0.082
909.800, 0.078
909.900, 0.072
910.000, 0.069
910.100, 0.087
910.200, 0.078
910.300, 0.068
910.400, 0.078
910.500, 0.080
910.600, 0.086
910.700, 0.075
910.800, 0.078
910.900, 0.083
911.000, 0.072
911.100, 0.082
911.200, 0.070
911.300, 0.080
911.400, 0.081
911.500, 0.096
911.600, 0.085
911.700, 0.080
911.800, 0.079
911.900, 0.074
912.000, 0.080
912.100, 0.068
912.200, 0.070
912.300, 0.078
912.400, 0.074
912.500, 0.078
912.600, 0.078
912.700, 0.082
912.800, 0.073
912.900, 0.080
913.000, 0.075
913.100, 0.079
913.200, 0.084
913.300, 0.083
913.400, 0.071
913.500, 0.081
913.600, 0.079
913.700, 0.080
913.800, 0.084
913.900, 0.089
914.000, 0.074
914.100, 0.083
914.200, 0.088
914.300, 0.072
914.400, 0.070
914.500, 0.067
914.600, 0.078
914.700, 0.076
914.800, 0.068
914.900, 0.076
915.000, 0.077
915.100, 0.078
915.200, 0.076
915.300, 0.072
915.400, 0.076
915.500, 0.074
915.600, 0.069
915.700, 0.070
915.800, 0.071
915.900, 0.078
916.000, 0.072
916.100, 0.070
916.200, 0.072
916.300, 0.072
916.400, 0.082
916.500, 0.075
916.600, 0.074
916.700, 0.063
916.800, 0.070
916.900, 0.067
917.000, 0.072
917.100, 0.069
917.200, 0.067
917.300, 0.066
917.400, 0.069
917.500, 0.069
917.600, 0.071
917.700, 0.071
917.800, 0.065
917.900, 0.073
918.000, 0.069
918.100, 0.063
918.200, 0.068
918.300, 0.070
918.400, 0.076
918.500, 0.073
918.600, 0.070
918.700, 0.068
918.800, 0.071
918.900, 0.076
919.000, 0.070
919.100, 0.069
919.200, 0.071
919.300, 0.077
919.400, 0.077
919.500, 0.080
919.600, 0.074
919.700, 0.083
919.800, 0.072
919.900, 0.080
920.000, 0.068
920.100, 0.074
920.200, 0.077
920.300, 0.065
920.400, 0.068
920.500, 0.064
920.600, 0.069
920.700, 0.080
920.800, 0.079
920.900, 0.066
921.000, 0.073
921.100, 0.069
921.200, 0.063
921.300, 0.064
921.400, 0.066
921.500, 0.066
921.600, 0.075
921.700, 0.084
921.800, 0.072
921.900, 0.078
922.000, 0.084
922.100, 0.089
922.200, 0.080
922.300, 0.078
922.400, 0.087
922.500, 0.091
922.600, 0.080
922.700, 0.077
922.800, 0.082
922.900, 0.081
923.000, 0.086
923.100, 0.078
923.200, 0.077
923.300, 0.073
923.400, 0.080
923.500, 0.082
923.600, 0.075
923.700, 0.086
923.800, 0.082
923.900, 0.084
924.000, 0.083
924.100, 0.075
924.200, 0.083
924.300, 0.073
924.400, 0.090
924.500, 0.082
924.600, 0.077
924.700, 0.076
924.800, 0.080
924.900, 0.068
925.000, 0.064
925.100, 0.065
925.200, 0.074
925.300, 0.078
925.400, 0.079
925.500, 0.064
925.600, 0.071
925.700, 0.068
925.800, 0.076
925.900, 0.073
926.000, 0.071
926.100, 0.067
926.200, 0.073
926.300, 0.069
926.400, 0.076
926.500, 0.081
926.600, 0.075
926.700, 0.070
926.800, 0.067
926.900, 0.078
927.000, 0.079
927.100, 0.068
927.200, 0.087
927.300, 0.068
927.400, 0.082
927.500, 0.070
927.600, 0.071
927.700, 0.067
927.800, 0.068
927.900, 0.074
928.000, 0.076
928.100, 0.077
928.200, 0.078
928.300, 0.072
928.400, 0.071
928.500, 0.077
928.600, 0.074
928.700, 0.077
928.800, 0.072
928.900, 0.077
929.000, 0.077
929.100, 0.076
929.200, 0.086
929.300, 0.075
929.400, 0.085
929.500, 0.082
929.600, 0.072
929.700, 0.077
929.800, 0.078
929.900, 0.079
930.000, 0.065
930.100, 0.077
930.200, 0.075
930.300, 0.079
930.400, 0.071
930.500, 0.085
930.600, 0.075
930.700, 0.075
930.800, 0.082
930.900, 0.094
931.000, 0.079
931.100, 0.088
931.200, 0.086
931.300, 0.079
931.400, 0.084
931.500, 0.084
931.600, 0.080
931.700, 0.079
931.800, 0.081
931.900, 0.072
932.000, 0.071
932.100, 0.078
932.200, 0.078
932.300, 0.078
932.400, 0.066
932.500, 0.073
932.600, 0.061
932.700, 0.074
932.800, 0.070
932.900, 0.068
933.000, 0.083
933.100, 0.076
933.200, 0.081
933.300, 0.075
933.400, 0.074
933.500, 0.071
933.600, 0.067
933.700, 0.073
933.800, 0.076
933.900, 0.077
934.000, 0.074
934.100, 0.073
934.200, 0.075
934.300, 0.068
934.400, 0.072
934.500, 0.080
934.600, 0.082
934.700, 0.080
934.800, 0.085
934.900, 0.079
935.000, 0.081
935.100, 0.086
935.200, 0.085
935.300, 0.083
935.400, 0.070
935.500, 0.070
935.600, 0.076
935.700, 0.078
935.800, 0.077
935.900, 0.073
936.000, 0.087
936.100, 0.078
936.200, 0.076
936.300, 0.075
936.400, 0.073
936.500, 0.078
936.600, 0.090
936.700, 0.088
936.800, 0.086
936.900, 0.076
937.000, 0.079
937.100, 0.078
937.200, 0.084
937.300, 0.084
937.400, 0.077
937.500, 0.087
937.600, 0.074
937.700, 0.068
937.800, 0.073
937.900, 0.076
938.000, 0.077
938.100, 0.073
938.200, 0.082
938.300, 0.079
938.400, 0.078
938.500, 0.083
938.600, 0.086
938.700, 0.086
938.800, 0.092
938.900, 0.080
939.000, 0.090
939.100, 0.077
939.200, 0.081
939.300, 0.077
939.400, 0.071
939.500, 0.076
939.600, 0.083
939.700, 0.086
939.800, 0.086
939.900, 0.092
940.000, 0.085
940.100, 0.086
940.200, 0.090
940.300, 0.096
940.400, 0.097
940.500, 0.076
940.600, 0.073
940.700, 0.073
940.800, 0.082
940.900, 0.083
941.000, 0.081
941.100, 0.067
941.200, 0.085
941.300, 0.076
941.400, 0.083
941.500, 0.085
941.600, 0.075
941.700, 0.077
941.800, 0.085
941.900, 0.078
942.000, 0.070
942.100, 0.077
942.200, 0.075
942.300, 0.092
942.400, 0.078
942.500, 0.080
942.600, 0.079
942.700, 0.074
942.800, 0.082
942.900, 0.073
943.000, 0.079
943.100, 0.074
943.200, 0.082
943.300, 0.083
943.400, 0.069
943.500, 0.083
943.600, 0.080
943.700, 0.078
943.800, 0.081
943.900, 0.078
944.000, 0.082
944.100, 0.078
944.200, 0.079
944.300, 0.079
944.400, 0.078
944.500, 0.077
944.600, 0.072
944.700, 0.069
944.800, 0.073
944.900, 0.074
945.000, 0.073
945.100, 0.072
945.200, 0.069
945.300, 0.079
945.400, 0.074
945.500, 0.079
945.600, 0.077
945.700, 0.077
945.800, 0.089
945.900, 0.079
946.000, 0.080
946.100, 0.085
946.200, 0.090
946.300, 0.082
946.400, 0.076
946.500, 0.078
946.600, 0.083
946.700, 0.093
946.800, 0.082
946.900, 0.072
947.000, 0.080
947.100, 0.074
947.200, 0.077
947.300, 0.077
947.400, 0.086
947.500, 0.074
947.600, 0.082
947.700, 0.068
947.800, 0.080
947.900, 0.074
948.000, 0.072
948.100, 0.069
948.200, 0.080
948.300, 0.070
948.400, 0.071
948.500, 0.067
948.600, 0.073
948.700, 0.065
948.800, 0.068
948.900, 0.077
949.000, 0.086
949.100, 0.072
949.200, 0.066
949.300, 0.070
949.400, 0.078
949.500, 0.078
949.600, 0.083
949.700, 0.071
949.800, 0.078
949.900, 0.078
950.000, 0.071
950.100, 0.070
950.200, 0.075
950.300, 0.067
950.400, 0.069
950.500, 0.084
950.600, 0.066
950.700, 0.069
950.800, 0.072
950.900, 0.081
951.000, 0.068
951.100, 0.070
951.200, 0.072
951.300, 0.072
951.400, 0.066
951.500, 0.062
951.600, 0.066
951.700, 0.073
951.800, 0.083
951.900, 0.076
952.000, 0.076
952.100, 0.067
952.200, 0.084
952.300, 0.062
952.400, 0.066
952.500, 0.078
952.600, 0.065
952.700, 0.070
952.800, 0.066
952.900, 0.063
953.000, 0.058
953.100, 0.065
953.200, 0.068
953.300, 0.067
953.400, 0.067
953.500, 0.061
953.600, 0.067
953.700, 0.070
953.800, 0.064
953.900, 0.072
954.000, 0.073
954.100, 0.067
954.200, 0.066
954.300, 0.068
954.400, 0.064
954.500, 0.065
954.600, 0.070
954.700, 0.071
954.800, 0.074
954.900, 0.063
955.000, 0.070
955.100, 0.070
955.200, 0.065
955.300, 0.067
955.400, 0.066
955.500, 0.064
955.600, 0.066
955.700, 0.066
955.800, 0.070
955.900, 0.067
956.000, 0.062
956.100, 0.067
956.200, 0.076
956.300, 0.070
956.400, 0.065
956.500, 0.071
956.600, 0.071
956.700, 0.076
956.800, 0.069
956.900, 0.065
957.000, 0.067
957.100, 0.062
957.200, 0.064
957.300, 0.072
957.400, 0.068
957.500, 0.077
957.600, 0.081
957.700, 0.077
957.800, 0.068
957.900, 0.065
958.000, 0.062
958.100, 0.060
958.200, 0.068
958.300, 0.070
958.400, 0.072
958.500, 0.066
958.600, 0.066
958.700, 0.061
958.800, 0.062
958.900, 0.076
959.000, 0.066
959.100, 0.079
959.200, 0.074
959.300, 0.064
959.400, 0.064
959.500, 0.063
959.600, 0.063
959.700, 0.060
959.800, 0.065
959.900, 0.064
960.000, 0.075
960.100, 0.067
960.200, 0.074
960.300, 0.064
960.400, 0.068
960.500, 0.070
960.600, 0.072
960.700, 0.079
960.800, 0.077
960.900, 0.069
961.000, 0.073
961.100, 0.070
961.200, 0.073
961.300, 0.077
961.400, 0.069
961.500, 0.072
961.600, 0.073
961.700, 0.076
961.800, 0.076
961.900, 0.076
962.000, 0.072
962.100, 0.078
962.200, 0.075
962.300, 0.079
962.400, 0.065
962.500, 0.067
962.600, 0.073
962.700, 0.076
962.800, 0.082
962.900, 0.068
963.000, 0.077
963.100, 0.081
963.200, 0.076
963.300, 0.076
963.400, 0.082
963.500, 0.084
963.600, 0.070
963.700, 0.080
963.800, 0.076
963.900, 0.081
964.000, 0.068
964.100, 0.068
964.200, 0.079
964.300, 0.080
964.400, 0.081
964.500, 0.074
964.600, 0.077
964.700, 0.076
964.800, 0.082
964.900, 0.087
965.000, 0.078
965.100, 0.085
965.200, 0.077
965.300, 0.079
965.400, 0.075
965.500, 0.073
965.600, 0.072
965.700, 0.076
965.800, 0.063
965.900, 0.065
966.000, 0.072
966.100, 0.076
966.200, 0.070
966.300, 0.080
966.400, 0.076
966.500, 0.080
966.600, 0.088
966.700, 0.077
966.800, 0.092
966.900, 0.088
967.000, 0.076
967.100, 0.079
967.200, 0.088
967.300, 0.074
967.400, 0.079
967.500, 0.079
967.600, 0.070
967.700, 0.075
967.800, 0.076
967.900, 0.073
968.000, 0.078
968.100, 0.066
968.200, 0.077
968.300, 0.072
968.400, 0.068
968.500, 0.071
968.600, 0.069
968.700, 0.072
968.800, 0.071
968.900, 0.066
969.000, 0.063
969.100, 0.063
969.200, 0.077
969.300, 0.074
969.400, 0.087
969.500, 0.069
969.600, 0.072
969.700, 0.072
969.800, 0.073
969.900, 0.068
970.000, 0.086
970.100, 0.076
970.200, 0.069
970.300, 0.072
970.400, 0.069
970.500, 0.066
970.600, 0.072
970.700, 0.075
970.800, 0.065
970.900, 0.067
971.000, 0.079
971.100, 0.077
971.200, 0.073
971.300, 0.067
971.400, 0.072
971.500, 0.071
971.600, 0.073
971.700, 0.074
971.800, 0.069
971.900, 0.072
972.000, 0.073
972.100, 0.066
972.200, 0.072
972.300, 0.075
972.400, 0.079
972.500, 0.072
972.600, 0.064
972.700, 0.065
972.800, 0.073
972.900, 0.072
973.000, 0.073
973.100, 0.070
973.200, 0.069
973.300, 0.064
973.400, 0.068
973.500, 0.073
973.600, 0.077
973.700, 0.066
973.800, 0.066
973.900, 0.076
974.000, 0.076
974.100, 0.063
974.200, 0.067
974.300, 0.077
974.400, 0.067
974.500, 0.065
974.600, 0.063
974.700, 0.072
974.800, 0.076
974.900, 0.067
975.000, 0.065
975.100, 0.073
975.200, 0.061
975.300, 0.069
975.400, 0.060
975.500, 0.061
975.600, 0.066
975.700, 0.069
975.800, 0.070
975.900, 0.067
976.000, 0.069
976.100, 0.063
976.200, 0.067
976.300, 0.064
976.400, 0.074
976.500, 0.082
976.600, 0.076
976.700, 0.072
976.800, 0.075
976.900, 0.075
977.000, 0.071
977.100, 0.086
977.200, 0.073
977.300, 0.075
977.400, 0.069
977.500, 0.071
977.600, 0.077
977.700, 0.081
977.800, 0.078
977.900, 0.069
978.000, 0.082
978.100, 0.068
978.200, 0.072
978.300, 0.069
978.400, 0.067
978.500, 0.074
978.600, 0.076
978.700, 0.077
978.800, 0.074
978.900, 0.082
979.000, 0.066
979.100, 0.065
979.200, 0.063
979.300, 0.069
979.400, 0.067
979.500, 0.066
979.600, 0.070
979.700, 0.063
979.800, 0.064
979.900, 0.061
980.000, 0.074
980.100, 0.070
980.200, 0.068
980.300, 0.076
980.400, 0.064
980.500, 0.072
980.600, 0.073
980.700, 0.068
980.800, 0.072
980.900, 0.062
981.000, 0.066
981.100, 0.066
981.200, 0.072
981.300, 0.069
981.400, 0.066
981.500, 0.074
981.600, 0.064
981.700, 0.064
981.800, 0.065
981.900, 0.068
982.000, 0.064
982.100, 0.064
982.200, 0.068
982.300, 0.059
982.400, 0.071
982.500, 0.064
982.600, 0.070
982.700, 0.071
982.800, 0.062
982.900, 0.069
983.000, 0.065
983.100, 0.069
983.200, 0.070
983.300, 0.073
983.400, 0.069
983.500, 0.071
983.600, 0.067
983.700, 0.073
983.800, 0.070
983.900, 0.073
984.000, 0.075
984.100, 0.073
984.200, 0.066
984.300, 0.084
984.400, 0.077
984.500, 0.061
984.600, 0.074
984.700, 0.076
984.800, 0.070
984.900, 0.067
985.000, 0.081
985.100, 0.070
985.200, 0.077
985.300, 0.065
985.400, 0.061
985.500, 0.070
985.600, 0.064
985.700, 0.072
985.800, 0.079
985.900, 0.070
986.000, 0.069
986.100, 0.068
986.200, 0.065
986.300, 0.076
986.400, 0.078
986.500, 0.074
986.600, 0.086
986.700, 0.074
986.800, 0.079
986.900, 0.069
987.000, 0.071
987.100, 0.078
987.200, 0.067
987.300, 0.073
987.400, 0.068
987.500, 0.074
987.600, 0.063
987.700, 0.078
987.800, 0.073
987.900, 0.077
988.000, 0.072
988.100, 0.081
988.200, 0.069
988.300, 0.063
988.400, 0.069
988.500, 0.068
988.600, 0.072
988.700, 0.081
988.800, 0.068
988.900, 0.070
989.000, 0.071
989.100, 0.066
989.200, 0.064
989.300, 0.066
989.400, 0.069
989.500, 0.067
989.600, 0.061
989.700, 0.072
989.800, 0.076
989.900, 0.068
990.000, 0.074
990.100, 0.072
990.200, 0.069
990.300, 0.073
990.400, 0.084
990.500, 0.074
990.600, 0.085
990.700, 0.075
990.800, 0.079
990.900, 0.071
991.000, 0.072
991.100, 0.071
991.200, 0.071
991.300, 0.066
991.400, 0.064
991.500, 0.074
991.600, 0.075
991.700, 0.071
991.800, 0.077
991.900, 0.067
992.000, 0.060
992.100, 0.070
992.200, 0.068
992.300, 0.080
992.400, 0.062
992.500, 0.071
992.600, 0.062
992.700, 0.067
992.800, 0.071
992.900, 0.078
993.000, 0.083
993.100, 0.073
993.200, 0.072
993.300, 0.074
993.400, 0.073
993.500, 0.073
993.600, 0.068
993.700, 0.079
993.800, 0.077
993.900, 0.076
994.000, 0.075
994.100, 0.083
994.200, 0.074
994.300, 0.077
994.400, 0.067
994.500, 0.071
994.600, 0.065
994.700, 0.065
994.800, 0.065
994.900, 0.072
995.000, 0.064
995.100, 0.063
995.200, 0.069
995.300, 0.079
995.400, 0.067
995.500, 0.072
995.600, 0.074
995.700, 0.070
995.800, 0.082
995.900, 0.066
996.000, 0.068
996.100, 0.089
996.200, 0.069
996.300, 0.079
996.400, 0.081
996.500, 0.078
996.600, 0.078
996.700, 0.087
996.800, 0.071
996.900, 0.075
997.000, 0.078
997.100, 0.072
997.200, 0.072
997.300, 0.073
997.400, 0.063
997.500, 0.061
997.600, 0.070
997.700, 0.070
997.800, 0.063
997.900, 0.075
998.000, 0.063
998.100, 0.078
998.200, 0.062
998.300, 0.060
998.400, 0.072
998.500, 0.063
998.600, 0.077
998.700, 0.067
998.800, 0.068
998.900, 0.071
999.000, 0.070
999.100, 0.063
999.200, 0.062
999.300, 0.061
999.400, 0.061
999.500, 0.066
999.600, 0.057
999.700, 0.057
999.800, 0.050
999.900, 0.008
1000.000, 0.001
