Time (ps), RMSD (nm)
0.000, 0.000
0.100, 0.110
0.200, 0.097
0.300, 0.111
0.400, 0.115
0.500, 0.111
0.600, 0.105
0.700, 0.102
0.800, 0.097
0.900, 0.109
1.000, 0.103
1.100, 0.097
1.200, 0.098
1.300, 0.087
1.400, 0.089
1.500, 0.092
1.600, 0.106
1.700, 0.101
1.800, 0.088
1.900, 0.093
2.000, 0.107
2.100, 0.106
2.200, 0.105
2.300, 0.099
2.400, 0.100
2.500, 0.097
2.600, 0.101
2.700, 0.102
2.800, 0.091
2.900, 0.092
3.000, 0.098
3.100, 0.094
3.200, 0.103
3.300, 0.095
3.400, 0.098
3.500, 0.102
3.600, 0.099
3.700, 0.100
3.800, 0.108
3.900, 0.101
4.000, 0.104
4.100, 0.094
4.200, 0.115
4.300, 0.106
4.400, 0.107
4.500, 0.095
4.600, 0.100
4.700, 0.107
4.800, 0.100
4.900, 0.093
5.000, 0.093
5.100, 0.098
5.200, 0.100
5.300, 0.098
5.400, 0.098
5.500, 0.103
5.600, 0.097
5.700, 0.107
5.800, 0.098
5.900, 0.096
6.000, 0.105
6.100, 0.103
6.200, 0.093
6.300, 0.101
6.400, 0.091
6.500, 0.097
6.600, 0.095
6.700, 0.099
6.800, 0.092
6.900, 0.093
7.000, 0.094
7.100, 0.091
7.200, 0.095
7.300, 0.100
7.400, 0.114
7.500, 0.103
7.600, 0.122
7.700, 0.112
7.800, 0.098
7.900, 0.105
8.000, 0.095
8.100, 0.095
8.200, 0.088
8.300, 0.093
8.400, 0.087
8.500, 0.094
8.600, 0.094
8.700, 0.089
8.800, 0.093
8.900, 0.096
9.000, 0.093
9.100, 0.100
9.200, 0.101
9.300, 0.099
9.400, 0.094
9.500, 0.100
9.600, 0.090
9.700, 0.097
9.800, 0.109
9.900, 0.099
10.000, 0.091
10.100, 0.096
10.200, 0.091
10.300, 0.086
10.400, 0.090
10.500, 0.097
10.600, 0.092
10.700, 0.084
10.800, 0.086
10.900, 0.093
11.000, 0.094
11.100, 0.086
11.200, 0.092
11.300, 0.078
11.400, 0.089
11.500, 0.095
11.600, 0.096
11.700, 0.086
11.800, 0.096
11.900, 0.089
12.000, 0.096
12.100, 0.098
12.200, 0.101
12.300, 0.104
12.400, 0.108
12.500, 0.102
12.600, 0.098
12.700, 0.105
12.800, 0.091
12.900, 0.091
13.000, 0.094
13.100, 0.103
13.200, 0.098
13.300, 0.088
13.400, 0.095
13.500, 0.097
13.600, 0.089
13.700, 0.101
13.800, 0.097
13.900, 0.096
14.000, 0.097
14.100, 0.098
14.200, 0.110
14.300, 0.110
14.400, 0.111
14.500, 0.097
14.600, 0.109
14.700, 0.110
14.800, 0.107
14.900, 0.113
15.000, 0.115
15.100, 0.106
15.200, 0.106
15.300, 0.105
15.400, 0.100
15.500, 0.100
15.600, 0.101
15.700, 0.091
15.800, 0.105
15.900, 0.104
16.000, 0.117
16.100, 0.102
16.200, 0.105
16.300, 0.117
16.400, 0.102
16.500, 0.097
16.600, 0.100
16.700, 0.102
16.800, 0.093
16.900, 0.103
17.000, 0.111
17.100, 0.113
17.200, 0.112
17.300, 0.112
17.400, 0.115
17.500, 0.121
17.600, 0.110
17.700, 0.112
17.800, 0.104
17.900, 0.111
18.000, 0.102
18.100, 0.095
18.200, 0.104
18.300, 0.097
18.400, 0.093
18.500, 0.095
18.600, 0.093
18.700, 0.099
18.800, 0.100
18.900, 0.098
19.000, 0.091
19.100, 0.098
19.200, 0.107
19.300, 0.102
19.400, 0.095
19.500, 0.101
19.600, 0.097
19.700, 0.097
19.800, 0.097
19.900, 0.100
20.000, 0.090
20.100, 0.089
20.200, 0.088
20.300, 0.085
20.400, 0.105
20.500, 0.101
20.600, 0.107
20.700, 0.103
20.800, 0.110
20.900, 0.097
21.000, 0.099
21.100, 0.099
21.200, 0.095
21.300, 0.099
21.400, 0.102
21.500, 0.093
21.600, 0.097
21.700, 0.095
21.800, 0.089
21.900, 0.101
22.000, 0.096
22.100, 0.098
22.200, 0.104
22.300, 0.102
22.400, 0.104
22.500, 0.101
22.600, 0.103
22.700, 0.101
22.800, 0.102
22.900, 0.100
23.000, 0.104
23.100, 0.103
23.200, 0.102
23.300, 0.092
23.400, 0.101
23.500, 0.105
23.600, 0.103
23.700, 0.097
23.800, 0.101
23.900, 0.108
24.000, 0.102
24.100, 0.100
24.200, 0.111
24.300, 0.103
24.400, 0.100
24.500, 0.096
24.600, 0.098
24.700, 0.101
24.800, 0.095
24.900, 0.104
25.000, 0.105
25.100, 0.111
25.200, 0.104
25.300, 0.101
25.400, 0.095
25.500, 0.108
25.600, 0.105
25.700, 0.095
25.800, 0.095
25.900, 0.096
26.000, 0.096
26.100, 0.101
26.200, 0.100
26.300, 0.097
26.400, 0.102
26.500, 0.097
26.600, 0.105
26.700, 0.098
26.800, 0.100
26.900, 0.096
27.000, 0.091
27.100, 0.092
27.200, 0.119
27.300, 0.117
27.400, 0.104
27.500, 0.101
27.600, 0.102
27.700, 0.095
27.800, 0.095
27.900, 0.107
28.000, 0.093
28.100, 0.093
28.200, 0.115
28.300, 0.103
28.400, 0.100
28.500, 0.098
28.600, 0.099
28.700, 0.090
28.800, 0.091
28.900, 0.106
29.000, 0.099
29.100, 0.092
29.200, 0.096
29.300, 0.098
29.400, 0.108
29.500, 0.093
29.600, 0.096
29.700, 0.091
29.800, 0.090
29.900, 0.095
30.000, 0.098
30.100, 0.096
30.200, 0.093
30.300, 0.097
30.400, 0.095
30.500, 0.100
30.600, 0.091
30.700, 0.102
30.800, 0.091
30.900, 0.087
31.000, 0.099
31.100, 0.097
31.200, 0.094
31.300, 0.092
31.400, 0.091
31.500, 0.083
31.600, 0.092
31.700, 0.085
31.800, 0.093
31.900, 0.099
32.000, 0.090
32.100, 0.089
32.200, 0.102
32.300, 0.098
32.400, 0.101
32.500, 0.110
32.600, 0.109
32.700, 0.098
32.800, 0.102
32.900, 0.096
33.000, 0.103
33.100, 0.104
33.200, 0.088
33.300, 0.099
33.400, 0.094
33.500, 0.092
33.600, 0.095
33.700, 0.098
33.800, 0.097
33.900, 0.097
34.000, 0.094
34.100, 0.096
34.200, 0.094
34.300, 0.093
34.400, 0.095
34.500, 0.091
34.600, 0.090
34.700, 0.097
34.800, 0.102
34.900, 0.095
35.000, 0.096
35.100, 0.094
35.200, 0.092
35.300, 0.096
35.400, 0.092
35.500, 0.086
35.600, 0.099
35.700, 0.100
35.800, 0.097
35.900, 0.094
36.000, 0.092
36.100, 0.093
36.200, 0.085
36.300, 0.085
36.400, 0.087
36.500, 0.094
36.600, 0.087
36.700, 0.098
36.800, 0.096
36.900, 0.089
37.000, 0.089
37.100, 0.092
37.200, 0.085
37.300, 0.083
37.400, 0.092
37.500, 0.096
37.600, 0.096
37.700, 0.097
37.800, 0.091
37.900, 0.101
38.000, 0.086
38.100, 0.096
38.200, 0.097
38.300, 0.097
38.400, 0.095
38.500, 0.102
38.600, 0.096
38.700, 0.090
38.800, 0.087
38.900, 0.085
39.000, 0.085
39.100, 0.094
39.200, 0.096
39.300, 0.092
39.400, 0.096
39.500, 0.092
39.600, 0.099
39.700, 0.101
39.800, 0.102
39.900, 0.098
40.000, 0.097
40.100, 0.107
40.200, 0.098
40.300, 0.098
40.400, 0.098
40.500, 0.096
40.600, 0.099
40.700, 0.106
40.800, 0.104
40.900, 0.093
41.000, 0.107
41.100, 0.097
41.200, 0.103
41.300, 0.103
41.400, 0.104
41.500, 0.106
41.600, 0.107
41.700, 0.099
41.800, 0.089
41.900, 0.094
42.000, 0.091
42.100, 0.097
42.200, 0.095
42.300, 0.094
42.400, 0.089
42.500, 0.089
42.600, 0.095
42.700, 0.097
42.800, 0.097
42.900, 0.107
43.000, 0.100
43.100, 0.107
43.200, 0.101
43.300, 0.105
43.400, 0.097
43.500, 0.095
43.600, 0.104
43.700, 0.103
43.800, 0.097
43.900, 0.111
44.000, 0.108
44.100, 0.108
44.200, 0.102
44.300, 0.105
44.400, 0.102
44.500, 0.110
44.600, 0.101
44.700, 0.105
44.800, 0.101
44.900, 0.097
45.000, 0.087
45.100, 0.105
45.200, 0.104
45.300, 0.100
45.400, 0.096
45.500, 0.098
45.600, 0.104
45.700, 0.099
45.800, 0.103
45.900, 0.102
46.000, 0.107
46.100, 0.103
46.200, 0.103
46.300, 0.110
46.400, 0.105
46.500, 0.109
46.600, 0.103
46.700, 0.109
46.800, 0.095
46.900, 0.089
47.000, 0.104
47.100, 0.094
47.200, 0.097
47.300, 0.098
47.400, 0.100
47.500, 0.085
47.600, 0.094
47.700, 0.094
47.800, 0.095
47.900, 0.093
48.000, 0.097
48.100, 0.100
48.200, 0.100
48.300, 0.095
48.400, 0.100
48.500, 0.104
48.600, 0.109
48.700, 0.106
48.800, 0.108
48.900, 0.116
49.000, 0.107
49.100, 0.104
49.200, 0.104
49.300, 0.105
49.400, 0.096
49.500, 0.096
49.600, 0.108
49.700, 0.101
49.800, 0.104
49.900, 0.103
50.000, 0.110
50.100, 0.107
50.200, 0.110
50.300, 0.120
50.400, 0.118
50.500, 0.102
50.600, 0.104
50.700, 0.095
50.800, 0.099
50.900, 0.097
51.000, 0.096
51.100, 0.097
51.200, 0.097
51.300, 0.099
51.400, 0.085
51.500, 0.095
51.600, 0.094
51.700, 0.098
51.800, 0.098
51.900, 0.101
52.000, 0.107
52.100, 0.110
52.200, 0.107
52.300, 0.115
52.400, 0.103
52.500, 0.099
52.600, 0.103
52.700, 0.104
52.800, 0.093
52.900, 0.100
53.000, 0.101
53.100, 0.094
53.200, 0.104
53.300, 0.102
53.400, 0.107
53.500, 0.104
53.600, 0.105
53.700, 0.110
53.800, 0.107
53.900, 0.115
54.000, 0.103
54.100, 0.104
54.200, 0.097
54.300, 0.092
54.400, 0.096
54.500, 0.096
54.600, 0.104
54.700, 0.098
54.800, 0.102
54.900, 0.106
55.000, 0.106
55.100, 0.116
55.200, 0.101
55.300, 0.102
55.400, 0.104
55.500, 0.107
55.600, 0.099
55.700, 0.104
55.800, 0.119
55.900, 0.119
56.000, 0.096
56.100, 0.097
56.200, 0.106
56.300, 0.099
56.400, 0.097
56.500, 0.094
56.600, 0.094
56.700, 0.100
56.800, 0.100
56.900, 0.101
57.000, 0.094
57.100, 0.091
57.200, 0.096
57.300, 0.090
57.400, 0.097
57.500, 0.092
57.600, 0.091
57.700, 0.097
57.800, 0.101
57.900, 0.105
58.000, 0.095
58.100, 0.098
58.200, 0.107
58.300, 0.090
58.400, 0.096
58.500, 0.094
58.600, 0.097
58.700, 0.101
58.800, 0.101
58.900, 0.099
59.000, 0.094
59.100, 0.094
59.200, 0.094
59.300, 0.097
59.400, 0.098
59.500, 0.098
59.600, 0.098
59.700, 0.093
59.800, 0.094
59.900, 0.096
60.000, 0.092
60.100, 0.085
60.200, 0.101
60.300, 0.103
60.400, 0.097
60.500, 0.088
60.600, 0.087
60.700, 0.109
60.800, 0.100
60.900, 0.093
61.000, 0.084
61.100, 0.093
61.200, 0.097
61.300, 0.100
61.400, 0.103
61.500, 0.092
61.600, 0.099
61.700, 0.094
61.800, 0.084
61.900, 0.094
62.000, 0.097
62.100, 0.092
62.200, 0.091
62.300, 0.102
62.400, 0.098
62.500, 0.094
62.600, 0.091
62.700, 0.100
62.800, 0.095
62.900, 0.093
63.000, 0.093
63.100, 0.097
63.200, 0.105
63.300, 0.087
63.400, 0.089
63.500, 0.101
63.600, 0.105
63.700, 0.092
63.800, 0.090
63.900, 0.097
64.000, 0.092
64.100, 0.108
64.200, 0.104
64.300, 0.094
64.400, 0.100
64.500, 0.089
64.600, 0.089
64.700, 0.084
64.800, 0.094
64.900, 0.099
65.000, 0.097
65.100, 0.093
65.200, 0.098
65.300, 0.101
65.400, 0.098
65.500, 0.099
65.600, 0.100
65.700, 0.100
65.800, 0.089
65.900, 0.091
66.000, 0.096
66.100, 0.092
66.200, 0.093
66.300, 0.096
66.400, 0.097
66.500, 0.094
66.600, 0.093
66.700, 0.092
66.800, 0.097
66.900, 0.100
67.000, 0.094
67.100, 0.100
67.200, 0.093
67.300, 0.091
67.400, 0.104
67.500, 0.099
67.600, 0.095
67.700, 0.087
67.800, 0.093
67.900, 0.091
68.000, 0.092
68.100, 0.094
68.200, 0.090
68.300, 0.093
68.400, 0.102
68.500, 0.102
68.600, 0.096
68.700, 0.092
68.800, 0.095
68.900, 0.098
69.000, 0.106
69.100, 0.099
69.200, 0.096
69.300, 0.103
69.400, 0.107
69.500, 0.099
69.600, 0.101
69.700, 0.097
69.800, 0.107
69.900, 0.096
70.000, 0.107
70.100, 0.097
70.200, 0.095
70.300, 0.088
70.400, 0.089
70.500, 0.094
70.600, 0.092
70.700, 0.085
70.800, 0.090
70.900, 0.093
71.000, 0.090
71.100, 0.097
71.200, 0.089
71.300, 0.081
71.400, 0.080
71.500, 0.086
71.600, 0.083
71.700, 0.086
71.800, 0.084
71.900, 0.088
72.000, 0.089
72.100, 0.095
72.200, 0.089
72.300, 0.083
72.400, 0.081
72.500, 0.085
72.600, 0.088
72.700, 0.089
72.800, 0.090
72.900, 0.086
73.000, 0.092
73.100, 0.082
73.200, 0.092
73.300, 0.092
73.400, 0.097
73.500, 0.093
73.600, 0.095
73.700, 0.100
73.800, 0.092
73.900, 0.096
74.000, 0.099
74.100, 0.101
74.200, 0.102
74.300, 0.098
74.400, 0.098
74.500, 0.099
74.600, 0.093
74.700, 0.093
74.800, 0.094
74.900, 0.094
75.000, 0.101
75.100, 0.093
75.200, 0.100
75.300, 0.099
75.400, 0.094
75.500, 0.094
75.600, 0.097
75.700, 0.104
75.800, 0.105
75.900, 0.104
76.000, 0.096
76.100, 0.103
76.200, 0.098
76.300, 0.098
76.400, 0.097
76.500, 0.095
76.600, 0.099
76.700, 0.093
76.800, 0.106
76.900, 0.098
77.000, 0.100
77.100, 0.103
77.200, 0.099
77.300, 0.091
77.400, 0.097
77.500, 0.093
77.600, 0.094
77.700, 0.094
77.800, 0.098
77.900, 0.089
78.000, 0.091
78.100, 0.090
78.200, 0.088
78.300, 0.091
78.400, 0.090
78.500, 0.089
78.600, 0.088
78.700, 0.086
78.800, 0.089
78.900, 0.094
79.000, 0.100
79.100, 0.092
79.200, 0.094
79.300, 0.084
79.400, 0.085
79.500, 0.089
79.600, 0.093
79.700, 0.099
79.800, 0.089
79.900, 0.094
80.000, 0.090
80.100, 0.093
80.200, 0.096
80.300, 0.105
80.400, 0.099
80.500, 0.090
80.600, 0.085
80.700, 0.088
80.800, 0.098
80.900, 0.094
81.000, 0.105
81.100, 0.100
81.200, 0.098
81.300, 0.099
81.400, 0.088
81.500, 0.092
81.600, 0.094
81.700, 0.089
81.800, 0.089
81.900, 0.086
82.000, 0.095
82.100, 0.093
82.200, 0.090
82.300, 0.099
82.400, 0.088
82.500, 0.088
82.600, 0.094
82.700, 0.091
82.800, 0.093
82.900, 0.097
83.000, 0.094
83.100, 0.086
83.200, 0.085
83.300, 0.096
83.400, 0.084
83.500, 0.088
83.600, 0.083
83.700, 0.082
83.800, 0.094
83.900, 0.084
84.000, 0.094
84.100, 0.090
84.200, 0.096
84.300, 0.094
84.400, 0.087
84.500, 0.094
84.600, 0.103
84.700, 0.093
84.800, 0.102
84.900, 0.087
85.000, 0.104
85.100, 0.097
85.200, 0.104
85.300, 0.099
85.400, 0.099
85.500, 0.090
85.600, 0.101
85.700, 0.100
85.800, 0.108
85.900, 0.101
86.000, 0.101
86.100, 0.095
86.200, 0.104
86.300, 0.095
86.400, 0.099
86.500, 0.094
86.600, 0.087
86.700, 0.101
86.800, 0.089
86.900, 0.095
87.000, 0.098
87.100, 0.097
87.200, 0.100
87.300, 0.101
87.400, 0.105
87.500, 0.099
87.600, 0.094
87.700, 0.087
87.800, 0.099
87.900, 0.099
88.000, 0.092
88.100, 0.095
88.200, 0.088
88.300, 0.095
88.400, 0.096
88.500, 0.101
88.600, 0.093
88.700, 0.098
88.800, 0.100
88.900, 0.086
89.000, 0.092
89.100, 0.090
89.200, 0.094
89.300, 0.097
89.400, 0.096
89.500, 0.095
89.600, 0.099
89.700, 0.095
89.800, 0.100
89.900, 0.100
90.000, 0.095
90.100, 0.099
90.200, 0.115
90.300, 0.101
90.400, 0.090
90.500, 0.122
90.600, 0.091
90.700, 0.105
90.800, 0.104
90.900, 0.114
91.000, 0.103
91.100, 0.100
91.200, 0.107
91.300, 0.096
91.400, 0.102
91.500, 0.091
91.600, 0.106
91.700, 0.102
91.800, 0.105
91.900, 0.117
92.000, 0.110
92.100, 0.103
92.200, 0.110
92.300, 0.102
92.400, 0.110
92.500, 0.103
92.600, 0.091
92.700, 0.094
92.800, 0.100
92.900, 0.091
93.000, 0.094
93.100, 0.094
93.200, 0.102
93.300, 0.095
93.400, 0.099
93.500, 0.099
93.600, 0.098
93.700, 0.094
93.800, 0.101
93.900, 0.108
94.000, 0.099
94.100, 0.110
94.200, 0.106
94.300, 0.092
94.400, 0.097
94.500, 0.096
94.600, 0.093
94.700, 0.103
94.800, 0.093
94.900, 0.091
95.000, 0.097
95.100, 0.104
95.200, 0.090
95.300, 0.094
95.400, 0.089
95.500, 0.096
95.600, 0.083
95.700, 0.089
95.800, 0.086
95.900, 0.097
96.000, 0.092
96.100, 0.097
96.200, 0.097
96.300, 0.089
96.400, 0.095
96.500, 0.090
96.600, 0.089
96.700, 0.087
96.800, 0.095
96.900, 0.096
97.000, 0.090
97.100, 0.089
97.200, 0.086
97.300, 0.097
97.400, 0.090
97.500, 0.094
97.600, 0.094
97.700, 0.104
97.800, 0.093
97.900, 0.099
98.000, 0.095
98.100, 0.094
98.200, 0.097
98.300, 0.089
98.400, 0.087
98.500, 0.091
98.600, 0.100
98.700, 0.090
98.800, 0.091
98.900, 0.090
99.000, 0.094
99.100, 0.102
99.200, 0.091
99.300, 0.089
99.400, 0.100
99.500, 0.111
99.600, 0.106
99.700, 0.100
99.800, 0.096
99.900, 0.112
100.000, 0.105
100.100, 0.099
100.200, 0.102
100.300, 0.105
100.400, 0.099
100.500, 0.099
100.600, 0.088
100.700, 0.097
100.800, 0.102
100.900, 0.099
101.000, 0.094
101.100, 0.093
101.200, 0.106
101.300, 0.090
101.400, 0.095
101.500, 0.103
101.600, 0.097
101.700, 0.088
101.800, 0.092
101.900, 0.100
102.000, 0.086
102.100, 0.095
102.200, 0.099
102.300, 0.090
102.400, 0.090
102.500, 0.086
102.600, 0.095
102.700, 0.091
102.800, 0.084
102.900, 0.081
103.000, 0.084
103.100, 0.084
103.200, 0.084
103.300, 0.092
103.400, 0.088
103.500, 0.087
103.600, 0.084
103.700, 0.088
103.800, 0.093
103.900, 0.091
104.000, 0.097
104.100, 0.100
104.200, 0.108
104.300, 0.101
104.400, 0.098
104.500, 0.089
104.600, 0.098
104.700, 0.099
104.800, 0.099
104.900, 0.101
105.000, 0.094
105.100, 0.091
105.200, 0.084
105.300, 0.096
105.400, 0.100
105.500, 0.098
105.600, 0.098
105.700, 0.090
105.800, 0.091
105.900, 0.090
106.000, 0.092
106.100, 0.083
106.200, 0.084
106.300, 0.087
106.400, 0.090
106.500, 0.096
106.600, 0.093
106.700, 0.096
106.800, 0.088
106.900, 0.096
107.000, 0.096
107.100, 0.100
107.200, 0.094
107.300, 0.101
107.400, 0.088
107.500, 0.104
107.600, 0.086
107.700, 0.096
107.800, 0.100
107.900, 0.091
108.000, 0.105
108.100, 0.102
108.200, 0.099
108.300, 0.101
108.400, 0.109
108.500, 0.105
108.600, 0.112
108.700, 0.099
108.800, 0.092
108.900, 0.097
109.000, 0.099
109.100, 0.098
109.200, 0.095
109.300, 0.096
109.400, 0.104
109.500, 0.098
109.600, 0.100
109.700, 0.095
109.800, 0.101
109.900, 0.099
110.000, 0.104
110.100, 0.088
110.200, 0.094
110.300, 0.096
110.400, 0.103
110.500, 0.100
110.600, 0.093
110.700, 0.096
110.800, 0.092
110.900, 0.104
111.000, 0.096
111.100, 0.091
111.200, 0.103
111.300, 0.097
111.400, 0.101
111.500, 0.101
111.600, 0.095
111.700, 0.099
111.800, 0.101
111.900, 0.095
112.000, 0.089
112.100, 0.098
112.200, 0.108
112.300, 0.102
112.400, 0.103
112.500, 0.107
112.600, 0.103
112.700, 0.105
112.800, 0.110
112.900, 0.108
113.000, 0.111
113.100, 0.113
113.200, 0.117
113.300, 0.118
113.400, 0.103
113.500, 0.108
113.600, 0.093
113.700, 0.108
113.800, 0.113
113.900, 0.114
114.000, 0.106
114.100, 0.113
114.200, 0.103
114.300, 0.108
114.400, 0.118
114.500, 0.122
114.600, 0.109
114.700, 0.104
114.800, 0.106
114.900, 0.121
115.000, 0.110
115.100, 0.115
115.200, 0.123
115.300, 0.115
115.400, 0.110
115.500, 0.104
115.600, 0.105
115.700, 0.100
115.800, 0.107
115.900, 0.106
116.000, 0.093
116.100, 0.106
116.200, 0.107
116.300, 0.101
116.400, 0.094
116.500, 0.102
116.600, 0.107
116.700, 0.106
116.800, 0.111
116.900, 0.103
117.000, 0.108
117.100, 0.107
117.200, 0.104
117.300, 0.099
117.400, 0.101
117.500, 0.092
117.600, 0.100
117.700, 0.103
117.800, 0.097
117.900, 0.103
118.000, 0.093
118.100, 0.095
118.200, 0.093
118.300, 0.107
118.400, 0.100
118.500, 0.099
118.600, 0.110
118.700, 0.106
118.800, 0.110
118.900, 0.106
119.000, 0.096
119.100, 0.102
119.200, 0.109
119.300, 0.110
119.400, 0.096
119.500, 0.108
119.600, 0.117
119.700, 0.117
119.800, 0.105
119.900, 0.097
120.000, 0.103
120.100, 0.103
120.200, 0.107
120.300, 0.106
120.400, 0.098
120.500, 0.105
120.600, 0.098
120.700, 0.096
120.800, 0.099
120.900, 0.095
121.000, 0.102
121.100, 0.092
121.200, 0.090
121.300, 0.091
121.400, 0.104
121.500, 0.103
121.600, 0.095
121.700, 0.101
121.800, 0.101
121.900, 0.096
122.000, 0.105
122.100, 0.092
122.200, 0.118
122.300, 0.103
122.400, 0.110
122.500, 0.100
122.600, 0.100
122.700, 0.106
122.800, 0.121
122.900, 0.100
123.000, 0.104
123.100, 0.107
123.200, 0.120
123.300, 0.109
123.400, 0.126
123.500, 0.111
123.600, 0.123
123.700, 0.109
123.800, 0.117
123.900, 0.113
124.000, 0.115
124.100, 0.110
124.200, 0.103
124.300, 0.102
124.400, 0.108
124.500, 0.098
124.600, 0.095
124.700, 0.101
124.800, 0.113
124.900, 0.111
125.000, 0.099
125.100, 0.100
125.200, 0.105
125.300, 0.104
125.400, 0.107
125.500, 0.102
125.600, 0.098
125.700, 0.101
125.800, 0.105
125.900, 0.101
126.000, 0.104
126.100, 0.104
126.200, 0.107
126.300, 0.107
126.400, 0.102
126.500, 0.115
126.600, 0.118
126.700, 0.119
126.800, 0.112
126.900, 0.109
127.000, 0.108
127.100, 0.109
127.200, 0.108
127.300, 0.107
127.400, 0.105
127.500, 0.105
127.600, 0.101
127.700, 0.101
127.800, 0.105
127.900, 0.105
128.000, 0.110
128.100, 0.107
128.200, 0.108
128.300, 0.119
128.400, 0.111
128.500, 0.112
128.600, 0.108
128.700, 0.116
128.800, 0.107
128.900, 0.112
129.000, 0.120
129.100, 0.110
129.200, 0.107
129.300, 0.117
129.400, 0.104
129.500, 0.112
129.600, 0.112
129.700, 0.109
129.800, 0.109
129.900, 0.112
130.000, 0.110
130.100, 0.097
130.200, 0.101
130.300, 0.113
130.400, 0.111
130.500, 0.100
130.600, 0.104
130.700, 0.117
130.800, 0.111
130.900, 0.114
131.000, 0.106
131.100, 0.120
131.200, 0.105
131.300, 0.103
131.400, 0.110
131.500, 0.116
131.600, 0.104
131.700, 0.109
131.800, 0.110
131.900, 0.106
132.000, 0.105
132.100, 0.097
132.200, 0.107
132.300, 0.103
132.400, 0.103
132.500, 0.104
132.600, 0.110
132.700, 0.110
132.800, 0.098
132.900, 0.096
133.000, 0.105
133.100, 0.101
133.200, 0.109
133.300, 0.103
133.400, 0.099
133.500, 0.109
133.600, 0.113
133.700, 0.094
133.800, 0.092
133.900, 0.092
134.000, 0.096
134.100, 0.095
134.200, 0.091
134.300, 0.092
134.400, 0.094
134.500, 0.098
134.600, 0.106
134.700, 0.107
134.800, 0.119
134.900, 0.120
135.000, 0.107
135.100, 0.109
135.200, 0.109
135.300, 0.112
135.400, 0.100
135.500, 0.110
135.600, 0.099
135.700, 0.110
135.800, 0.115
135.900, 0.109
136.000, 0.112
136.100, 0.115
136.200, 0.110
136.300, 0.116
136.400, 0.124
136.500, 0.106
136.600, 0.107
136.700, 0.108
136.800, 0.101
136.900, 0.105
137.000, 0.112
137.100, 0.103
137.200, 0.103
137.300, 0.113
137.400, 0.112
137.500, 0.101
137.600, 0.113
137.700, 0.110
137.800, 0.101
137.900, 0.107
138.000, 0.101
138.100, 0.118
138.200, 0.122
138.300, 0.106
138.400, 0.103
138.500, 0.101
138.600, 0.097
138.700, 0.092
138.800, 0.108
138.900, 0.104
139.000, 0.100
139.100, 0.104
139.200, 0.105
139.300, 0.102
139.400, 0.102
139.500, 0.101
139.600, 0.107
139.700, 0.116
139.800, 0.108
139.900, 0.107
140.000, 0.114
140.100, 0.107
140.200, 0.109
140.300, 0.114
140.400, 0.119
140.500, 0.111
140.600, 0.107
140.700, 0.104
140.800, 0.108
140.900, 0.102
141.000, 0.107
141.100, 0.099
141.200, 0.108
141.300, 0.103
141.400, 0.094
141.500, 0.102
141.600, 0.108
141.700, 0.109
141.800, 0.101
141.900, 0.101
142.000, 0.105
142.100, 0.108
142.200, 0.114
142.300, 0.102
142.400, 0.103
142.500, 0.111
142.600, 0.113
142.700, 0.112
142.800, 0.100
142.900, 0.113
143.000, 0.112
143.100, 0.108
143.200, 0.105
143.300, 0.102
143.400, 0.101
143.500, 0.094
143.600, 0.100
143.700, 0.099
143.800, 0.099
143.900, 0.099
144.000, 0.101
144.100, 0.101
144.200, 0.101
144.300, 0.095
144.400, 0.111
144.500, 0.105
144.600, 0.110
144.700, 0.110
144.800, 0.111
144.900, 0.110
145.000, 0.113
145.100, 0.104
145.200, 0.087
145.300, 0.090
145.400, 0.094
145.500, 0.100
145.600, 0.094
145.700, 0.098
145.800, 0.100
145.900, 0.093
146.000, 0.102
146.100, 0.097
146.200, 0.105
146.300, 0.094
146.400, 0.096
146.500, 0.106
146.600, 0.115
146.700, 0.113
146.800, 0.094
146.900, 0.114
147.000, 0.110
147.100, 0.111
147.200, 0.098
147.300, 0.091
147.400, 0.096
147.500, 0.106
147.600, 0.103
147.700, 0.108
147.800, 0.117
147.900, 0.106
148.000, 0.119
148.100, 0.122
148.200, 0.119
148.300, 0.116
148.400, 0.112
148.500, 0.099
148.600, 0.103
148.700, 0.100
148.800, 0.108
148.900, 0.101
149.000, 0.103
149.100, 0.106
149.200, 0.106
149.300, 0.104
149.400, 0.090
149.500, 0.104
149.600, 0.106
149.700, 0.112
149.800, 0.106
149.900, 0.104
150.000, 0.113
150.100, 0.105
150.200, 0.102
150.300, 0.110
150.400, 0.104
150.500, 0.108
150.600, 0.113
150.700, 0.113
150.800, 0.114
150.900, 0.103
151.000, 0.115
151.100, 0.110
151.200, 0.113
151.300, 0.121
151.400, 0.115
151.500, 0.120
151.600, 0.119
151.700, 0.117
151.800, 0.128
151.900, 0.112
152.000, 0.123
152.100, 0.122
152.200, 0.118
152.300, 0.121
152.400, 0.114
152.500, 0.121
152.600, 0.124
152.700, 0.126
152.800, 0.114
152.900, 0.121
153.000, 0.104
153.100, 0.119
153.200, 0.119
153.300, 0.113
153.400, 0.122
153.500, 0.125
153.600, 0.119
153.700, 0.124
153.800, 0.112
153.900, 0.109
154.000, 0.108
154.100, 0.102
154.200, 0.099
154.300, 0.106
154.400, 0.114
154.500, 0.107
154.600, 0.102
154.700, 0.120
154.800, 0.109
154.900, 0.109
155.000, 0.106
155.100, 0.115
155.200, 0.118
155.300, 0.111
155.400, 0.113
155.500, 0.104
155.600, 0.111
155.700, 0.120
155.800, 0.115
155.900, 0.119
156.000, 0.124
156.100, 0.115
156.200, 0.121
156.300, 0.117
156.400, 0.112
156.500, 0.121
156.600, 0.127
156.700, 0.107
156.800, 0.118
156.900, 0.118
157.000, 0.122
157.100, 0.121
157.200, 0.129
157.300, 0.124
157.400, 0.112
157.500, 0.103
157.600, 0.110
157.700, 0.110
157.800, 0.119
157.900, 0.120
158.000, 0.126
158.100, 0.118
158.200, 0.113
158.300, 0.114
158.400, 0.117
158.500, 0.108
158.600, 0.107
158.700, 0.111
158.800, 0.111
158.900, 0.106
159.000, 0.101
159.100, 0.115
159.200, 0.108
159.300, 0.111
159.400, 0.116
159.500, 0.112
159.600, 0.108
159.700, 0.108
159.800, 0.115
159.900, 0.106
160.000, 0.108
160.100, 0.110
160.200, 0.106
160.300, 0.114
160.400, 0.119
160.500, 0.108
160.600, 0.114
160.700, 0.119
160.800, 0.108
160.900, 0.120
161.000, 0.119
161.100, 0.119
161.200, 0.105
161.300, 0.116
161.400, 0.108
161.500, 0.100
161.600, 0.100
161.700, 0.099
161.800, 0.104
161.900, 0.089
162.000, 0.092
162.100, 0.093
162.200, 0.096
162.300, 0.105
162.400, 0.107
162.500, 0.122
162.600, 0.106
162.700, 0.105
162.800, 0.107
162.900, 0.117
163.000, 0.107
163.100, 0.114
163.200, 0.116
163.300, 0.114
163.400, 0.110
163.500, 0.099
163.600, 0.108
163.700, 0.107
163.800, 0.105
163.900, 0.104
164.000, 0.103
164.100, 0.096
164.200, 0.106
164.300, 0.095
164.400, 0.116
164.500, 0.109
164.600, 0.112
164.700, 0.113
164.800, 0.110
164.900, 0.114
165.000, 0.100
165.100, 0.109
165.200, 0.114
165.300, 0.111
165.400, 0.109
165.500, 0.110
165.600, 0.124
165.700, 0.118
165.800, 0.112
165.900, 0.111
166.000, 0.116
166.100, 0.107
166.200, 0.100
166.300, 0.108
166.400, 0.110
166.500, 0.119
166.600, 0.115
166.700, 0.118
166.800, 0.116
166.900, 0.102
167.000, 0.116
167.100, 0.116
167.200, 0.119
167.300, 0.107
167.400, 0.109
167.500, 0.118
167.600, 0.118
167.700, 0.104
167.800, 0.103
167.900, 0.106
168.000, 0.108
168.100, 0.105
168.200, 0.113
168.300, 0.123
168.400, 0.125
168.500, 0.115
168.600, 0.114
168.700, 0.109
168.800, 0.117
168.900, 0.115
169.000, 0.112
169.100, 0.117
169.200, 0.111
169.300, 0.114
169.400, 0.118
169.500, 0.114
169.600, 0.131
169.700, 0.116
169.800, 0.109
169.900, 0.119
170.000, 0.114
170.100, 0.114
170.200, 0.108
170.300, 0.122
170.400, 0.108
170.500, 0.109
170.600, 0.103
170.700, 0.102
170.800, 0.116
170.900, 0.117
171.000, 0.117
171.100, 0.109
171.200, 0.101
171.300, 0.120
171.400, 0.125
171.500, 0.113
171.600, 0.118
171.700, 0.111
171.800, 0.115
171.900, 0.111
172.000, 0.109
172.100, 0.114
172.200, 0.124
172.300, 0.124
172.400, 0.144
172.500, 0.133
172.600, 0.119
172.700, 0.113
172.800, 0.114
172.900, 0.122
173.000, 0.116
173.100, 0.129
173.200, 0.125
173.300, 0.134
173.400, 0.135
173.500, 0.133
173.600, 0.132
173.700, 0.128
173.800, 0.123
173.900, 0.126
174.000, 0.125
174.100, 0.124
174.200, 0.126
174.300, 0.120
174.400, 0.129
174.500, 0.111
174.600, 0.112
174.700, 0.105
174.800, 0.121
174.900, 0.123
175.000, 0.120
175.100, 0.120
175.200, 0.108
175.300, 0.102
175.400, 0.113
175.500, 0.098
175.600, 0.114
175.700, 0.117
175.800, 0.117
175.900, 0.107
176.000, 0.117
176.100, 0.115
176.200, 0.111
176.300, 0.118
176.400, 0.105
176.500, 0.112
176.600, 0.112
176.700, 0.115
176.800, 0.127
176.900, 0.127
177.000, 0.126
177.100, 0.118
177.200, 0.124
177.300, 0.106
177.400, 0.117
177.500, 0.110
177.600, 0.108
177.700, 0.122
177.800, 0.131
177.900, 0.117
178.000, 0.119
178.100, 0.112
178.200, 0.111
178.300, 0.112
178.400, 0.105
178.500, 0.118
178.600, 0.117
178.700, 0.127
178.800, 0.113
178.900, 0.113
179.000, 0.121
179.100, 0.126
179.200, 0.125
179.300, 0.122
179.400, 0.125
179.500, 0.118
179.600, 0.128
179.700, 0.143
179.800, 0.132
179.900, 0.127
180.000, 0.119
180.100, 0.113
180.200, 0.122
180.300, 0.119
180.400, 0.126
180.500, 0.119
180.600, 0.125
180.700, 0.131
180.800, 0.121
180.900, 0.115
181.000, 0.120
181.100, 0.117
181.200, 0.114
181.300, 0.123
181.400, 0.120
181.500, 0.131
181.600, 0.123
181.700, 0.122
181.800, 0.133
181.900, 0.122
182.000, 0.125
182.100, 0.127
182.200, 0.136
182.300, 0.129
182.400, 0.133
182.500, 0.126
182.600, 0.117
182.700, 0.109
182.800, 0.107
182.900, 0.119
183.000, 0.113
183.100, 0.118
183.200, 0.118
183.300, 0.114
183.400, 0.116
183.500, 0.117
183.600, 0.124
183.700, 0.115
183.800, 0.113
183.900, 0.116
184.000, 0.122
184.100, 0.120
184.200, 0.124
184.300, 0.116
184.400, 0.125
184.500, 0.125
184.600, 0.129
184.700, 0.126
184.800, 0.117
184.900, 0.113
185.000, 0.127
185.100, 0.128
185.200, 0.127
185.300, 0.120
185.400, 0.109
185.500, 0.110
185.600, 0.106
185.700, 0.119
185.800, 0.119
185.900, 0.113
186.000, 0.124
186.100, 0.119
186.200, 0.119
186.300, 0.125
186.400, 0.121
186.500, 0.122
186.600, 0.110
186.700, 0.116
186.800, 0.131
186.900, 0.116
187.000, 0.120
187.100, 0.111
187.200, 0.120
187.300, 0.113
187.400, 0.117
187.500, 0.123
187.600, 0.132
187.700, 0.127
187.800, 0.126
187.900, 0.129
188.000, 0.122
188.100, 0.122
188.200, 0.124
188.300, 0.142
188.400, 0.133
188.500, 0.141
188.600, 0.124
188.700, 0.113
188.800, 0.122
188.900, 0.125
189.000, 0.118
189.100, 0.130
189.200, 0.107
189.300, 0.112
189.400, 0.117
189.500, 0.117
189.600, 0.121
189.700, 0.124
189.800, 0.126
189.900, 0.112
190.000, 0.113
190.100, 0.098
190.200, 0.105
190.300, 0.107
190.400, 0.109
190.500, 0.116
190.600, 0.115
190.700, 0.117
190.800, 0.120
190.900, 0.115
191.000, 0.120
191.100, 0.121
191.200, 0.109
191.300, 0.116
191.400, 0.112
191.500, 0.117
191.600, 0.120
191.700, 0.109
191.800, 0.113
191.900, 0.116
192.000, 0.125
192.100, 0.116
192.200, 0.122
192.300, 0.122
192.400, 0.118
192.500, 0.145
192.600, 0.130
192.700, 0.122
192.800, 0.118
192.900, 0.119
193.000, 0.114
193.100, 0.101
193.200, 0.115
193.300, 0.107
193.400, 0.107
193.500, 0.112
193.600, 0.101
193.700, 0.105
193.800, 0.100
193.900, 0.108
194.000, 0.102
194.100, 0.101
194.200, 0.103
194.300, 0.100
194.400, 0.107
194.500, 0.103
194.600, 0.103
194.700, 0.102
194.800, 0.099
194.900, 0.102
195.000, 0.105
195.100, 0.117
195.200, 0.103
195.300, 0.113
195.400, 0.106
195.500, 0.103
195.600, 0.099
195.700, 0.104
195.800, 0.092
195.900, 0.096
196.000, 0.106
196.100, 0.098
196.200, 0.101
196.300, 0.099
196.400, 0.103
196.500, 0.103
196.600, 0.101
196.700, 0.096
196.800, 0.108
196.900, 0.110
197.000, 0.108
197.100, 0.109
197.200, 0.103
197.300, 0.103
197.400, 0.104
197.500, 0.108
197.600, 0.109
197.700, 0.102
197.800, 0.101
197.900, 0.100
198.000, 0.106
198.100, 0.096
198.200, 0.103
198.300, 0.091
198.400, 0.097
198.500, 0.104
198.600, 0.097
198.700, 0.102
198.800, 0.102
198.900, 0.100
199.000, 0.107
199.100, 0.103
199.200, 0.094
199.300, 0.104
199.400, 0.117
199.500, 0.110
199.600, 0.104
199.700, 0.103
199.800, 0.108
199.900, 0.104
200.000, 0.108
200.100, 0.095
200.200, 0.104
200.300, 0.103
200.400, 0.099
200.500, 0.104
200.600, 0.101
200.700, 0.095
200.800, 0.099
200.900, 0.108
201.000, 0.108
201.100, 0.103
201.200, 0.105
201.300, 0.103
201.400, 0.107
201.500, 0.112
201.600, 0.112
201.700, 0.115
201.800, 0.115
201.900, 0.106
202.000, 0.105
202.100, 0.107
202.200, 0.109
202.300, 0.107
202.400, 0.108
202.500, 0.110
202.600, 0.103
202.700, 0.098
202.800, 0.094
202.900, 0.095
203.000, 0.097
203.100, 0.108
203.200, 0.108
203.300, 0.102
203.400, 0.099
203.500, 0.108
203.600, 0.102
203.700, 0.107
203.800, 0.104
203.900, 0.104
204.000, 0.090
204.100, 0.090
204.200, 0.099
204.300, 0.092
204.400, 0.089
204.500, 0.099
204.600, 0.101
204.700, 0.100
204.800, 0.102
204.900, 0.107
205.000, 0.105
205.100, 0.115
205.200, 0.108
205.300, 0.101
205.400, 0.096
205.500, 0.105
205.600, 0.102
205.700, 0.097
205.800, 0.105
205.900, 0.106
206.000, 0.107
206.100, 0.108
206.200, 0.110
206.300, 0.105
206.400, 0.099
206.500, 0.111
206.600, 0.101
206.700, 0.096
206.800, 0.102
206.900, 0.107
207.000, 0.108
207.100, 0.107
207.200, 0.107
207.300, 0.111
207.400, 0.108
207.500, 0.096
207.600, 0.103
207.700, 0.109
207.800, 0.106
207.900, 0.108
208.000, 0.110
208.100, 0.103
208.200, 0.104
208.300, 0.088
208.400, 0.110
208.500, 0.106
208.600, 0.098
208.700, 0.099
208.800, 0.101
208.900, 0.109
209.000, 0.098
209.100, 0.101
209.200, 0.107
209.300, 0.103
209.400, 0.099
209.500, 0.106
209.600, 0.098
209.700, 0.097
209.800, 0.096
209.900, 0.092
210.000, 0.102
210.100, 0.107
210.200, 0.105
210.300, 0.100
210.400, 0.101
210.500, 0.104
210.600, 0.105
210.700, 0.096
210.800, 0.106
210.900, 0.107
211.000, 0.109
211.100, 0.104
211.200, 0.092
211.300, 0.112
211.400, 0.109
211.500, 0.108
211.600, 0.114
211.700, 0.109
211.800, 0.125
211.900, 0.109
212.000, 0.111
212.100, 0.119
212.200, 0.117
212.300, 0.119
212.400, 0.105
212.500, 0.111
212.600, 0.110
212.700, 0.109
212.800, 0.109
212.900, 0.105
213.000, 0.119
213.100, 0.110
213.200, 0.107
213.300, 0.110
213.400, 0.103
213.500, 0.119
213.600, 0.118
213.700, 0.121
213.800, 0.127
213.900, 0.113
214.000, 0.112
214.100, 0.097
214.200, 0.108
214.300, 0.112
214.400, 0.105
214.500, 0.109
214.600, 0.115
214.700, 0.120
214.800, 0.114
214.900, 0.109
215.000, 0.109
215.100, 0.104
215.200, 0.116
215.300, 0.112
215.400, 0.118
215.500, 0.111
215.600, 0.113
215.700, 0.104
215.800, 0.118
215.900, 0.106
216.000, 0.113
216.100, 0.123
216.200, 0.116
216.300, 0.127
216.400, 0.113
216.500, 0.103
216.600, 0.099
216.700, 0.100
216.800, 0.108
216.900, 0.101
217.000, 0.106
217.100, 0.107
217.200, 0.096
217.300, 0.105
217.400, 0.103
217.500, 0.103
217.600, 0.100
217.700, 0.105
217.800, 0.107
217.900, 0.101
218.000, 0.095
218.100, 0.104
218.200, 0.103
218.300, 0.117
218.400, 0.111
218.500, 0.113
218.600, 0.110
218.700, 0.104
218.800, 0.112
218.900, 0.105
219.000, 0.110
219.100, 0.110
219.200, 0.107
219.300, 0.112
219.400, 0.106
219.500, 0.104
219.600, 0.107
219.700, 0.100
219.800, 0.096
219.900, 0.100
220.000, 0.098
220.100, 0.097
220.200, 0.102
220.300, 0.106
220.400, 0.094
220.500, 0.097
220.600, 0.101
220.700, 0.103
220.800, 0.104
220.900, 0.107
221.000, 0.107
221.100, 0.108
221.200, 0.109
221.300, 0.106
221.400, 0.113
221.500, 0.104
221.600, 0.099
221.700, 0.100
221.800, 0.099
221.900, 0.096
222.000, 0.100
222.100, 0.099
222.200, 0.106
222.300, 0.099
222.400, 0.109
222.500, 0.112
222.600, 0.103
222.700, 0.103
222.800, 0.106
222.900, 0.099
223.000, 0.104
223.100, 0.101
223.200, 0.101
223.300, 0.097
223.400, 0.097
223.500, 0.096
223.600, 0.106
223.700, 0.112
223.800, 0.111
223.900, 0.117
224.000, 0.103
224.100, 0.105
224.200, 0.120
224.300, 0.110
224.400, 0.117
224.500, 0.110
224.600, 0.111
224.700, 0.108
224.800, 0.117
224.900, 0.119
225.000, 0.107
225.100, 0.124
225.200, 0.124
225.300, 0.120
225.400, 0.109
225.500, 0.118
225.600, 0.115
225.700, 0.112
225.800, 0.121
225.900, 0.118
226.000, 0.107
226.100, 0.121
226.200, 0.117
226.300, 0.112
226.400, 0.108
226.500, 0.104
226.600, 0.104
226.700, 0.110
226.800, 0.100
226.900, 0.109
227.000, 0.108
227.100, 0.106
227.200, 0.108
227.300, 0.103
227.400, 0.103
227.500, 0.101
227.600, 0.106
227.700, 0.109
227.800, 0.108
227.900, 0.111
228.000, 0.107
228.100, 0.105
228.200, 0.107
228.300, 0.106
228.400, 0.118
228.500, 0.107
228.600, 0.111
228.700, 0.118
228.800, 0.107
228.900, 0.106
229.000, 0.106
229.100, 0.104
229.200, 0.107
229.300, 0.104
229.400, 0.101
229.500, 0.119
229.600, 0.112
229.700, 0.112
229.800, 0.109
229.900, 0.110
230.000, 0.111
230.100, 0.110
230.200, 0.114
230.300, 0.111
230.400, 0.111
230.500, 0.111
230.600, 0.117
230.700, 0.116
230.800, 0.121
230.900, 0.116
231.000, 0.121
231.100, 0.113
231.200, 0.118
231.300, 0.119
231.400, 0.114
231.500, 0.108
231.600, 0.115
231.700, 0.106
231.800, 0.107
231.900, 0.102
232.000, 0.107
232.100, 0.098
232.200, 0.097
232.300, 0.107
232.400, 0.109
232.500, 0.112
232.600, 0.121
232.700, 0.114
232.800, 0.107
232.900, 0.107
233.000, 0.106
233.100, 0.111
233.200, 0.104
233.300, 0.100
233.400, 0.106
233.500, 0.100
233.600, 0.102
233.700, 0.100
233.800, 0.109
233.900, 0.103
234.000, 0.101
234.100, 0.106
234.200, 0.098
234.300, 0.097
234.400, 0.097
234.500, 0.093
234.600, 0.101
234.700, 0.099
234.800, 0.103
234.900, 0.097
235.000, 0.103
235.100, 0.110
235.200, 0.109
235.300, 0.107
235.400, 0.108
235.500, 0.100
235.600, 0.103
235.700, 0.100
235.800, 0.098
235.900, 0.101
236.000, 0.106
236.100, 0.093
236.200, 0.092
236.300, 0.104
236.400, 0.096
236.500, 0.093
236.600, 0.094
236.700, 0.095
236.800, 0.095
236.900, 0.102
237.000, 0.103
237.100, 0.106
237.200, 0.116
237.300, 0.098
237.400, 0.092
237.500, 0.093
237.600, 0.093
237.700, 0.088
237.800, 0.079
237.900, 0.095
238.000, 0.093
238.100, 0.092
238.200, 0.095
238.300, 0.091
238.400, 0.097
238.500, 0.088
238.600, 0.099
238.700, 0.100
238.800, 0.093
238.900, 0.100
239.000, 0.095
239.100, 0.088
239.200, 0.098
239.300, 0.097
239.400, 0.099
239.500, 0.103
239.600, 0.106
239.700, 0.104
239.800, 0.105
239.900, 0.106
240.000, 0.095
240.100, 0.100
240.200, 0.109
240.300, 0.114
240.400, 0.116
240.500, 0.111
240.600, 0.109
240.700, 0.119
240.800, 0.110
240.900, 0.101
241.000, 0.101
241.100, 0.099
241.200, 0.094
241.300, 0.100
241.400, 0.090
241.500, 0.092
241.600, 0.096
241.700, 0.093
241.800, 0.089
241.900, 0.095
242.000, 0.090
242.100, 0.093
242.200, 0.094
242.300, 0.095
242.400, 0.100
242.500, 0.116
242.600, 0.105
242.700, 0.102
242.800, 0.110
242.900, 0.110
243.000, 0.111
243.100, 0.108
243.200, 0.109
243.300, 0.116
243.400, 0.112
243.500, 0.095
243.600, 0.102
243.700, 0.103
243.800, 0.120
243.900, 0.104
244.000, 0.107
244.100, 0.119
244.200, 0.109
244.300, 0.110
244.400, 0.109
244.500, 0.106
244.600, 0.107
244.700, 0.116
244.800, 0.111
244.900, 0.117
245.000, 0.110
245.100, 0.107
245.200, 0.104
245.300, 0.110
245.400, 0.110
245.500, 0.106
245.600, 0.101
245.700, 0.093
245.800, 0.088
245.900, 0.089
246.000, 0.093
246.100, 0.097
246.200, 0.096
246.300, 0.087
246.400, 0.095
246.500, 0.092
246.600, 0.098
246.700, 0.097
246.800, 0.085
246.900, 0.092
247.000, 0.086
247.100, 0.087
247.200, 0.098
247.300, 0.096
247.400, 0.087
247.500, 0.096
247.600, 0.084
247.700, 0.091
247.800, 0.095
247.900, 0.086
248.000, 0.087
248.100, 0.087
248.200, 0.080
248.300, 0.089
248.400, 0.087
248.500, 0.088
248.600, 0.085
248.700, 0.091
248.800, 0.089
248.900, 0.103
249.000, 0.088
249.100, 0.082
249.200, 0.089
249.300, 0.082
249.400, 0.089
249.500, 0.079
249.600, 0.089
249.700, 0.091
249.800, 0.088
249.900, 0.095
250.000, 0.093
250.100, 0.093
250.200, 0.090
250.300, 0.082
250.400, 0.093
250.500, 0.084
250.600, 0.091
250.700, 0.090
250.800, 0.090
250.900, 0.102
251.000, 0.097
251.100, 0.095
251.200, 0.096
251.300, 0.107
251.400, 0.092
251.500, 0.091
251.600, 0.094
251.700, 0.088
251.800, 0.095
251.900, 0.096
252.000, 0.094
252.100, 0.084
252.200, 0.089
252.300, 0.078
252.400, 0.086
252.500, 0.099
252.600, 0.092
252.700, 0.089
252.800, 0.090
252.900, 0.092
253.000, 0.101
253.100, 0.090
253.200, 0.092
253.300, 0.091
253.400, 0.098
253.500, 0.092
253.600, 0.091
253.700, 0.094
253.800, 0.099
253.900, 0.084
254.000, 0.094
254.100, 0.097
254.200, 0.098
254.300, 0.098
254.400, 0.105
254.500, 0.095
254.600, 0.102
254.700, 0.097
254.800, 0.098
254.900, 0.092
255.000, 0.089
255.100, 0.090
255.200, 0.089
255.300, 0.094
255.400, 0.088
255.500, 0.078
255.600, 0.087
255.700, 0.093
255.800, 0.092
255.900, 0.098
256.000, 0.087
256.100, 0.101
256.200, 0.097
256.300, 0.094
256.400, 0.095
256.500, 0.100
256.600, 0.083
256.700, 0.094
256.800, 0.083
256.900, 0.088
257.000, 0.099
257.100, 0.092
257.200, 0.085
257.300, 0.084
257.400, 0.089
257.500, 0.096
257.600, 0.097
257.700, 0.104
257.800, 0.097
257.900, 0.094
258.000, 0.090
258.100, 0.080
258.200, 0.103
258.300, 0.106
258.400, 0.097
258.500, 0.104
258.600, 0.093
258.700, 0.100
258.800, 0.094
258.900, 0.103
259.000, 0.098
259.100, 0.106
259.200, 0.106
259.300, 0.107
259.400, 0.096
259.500, 0.109
259.600, 0.099
259.700, 0.100
259.800, 0.105
259.900, 0.111
260.000, 0.107
260.100, 0.102
260.200, 0.107
260.300, 0.103
260.400, 0.109
260.500, 0.116
260.600, 0.109
260.700, 0.108
260.800, 0.102
260.900, 0.111
261.000, 0.107
261.100, 0.101
261.200, 0.103
261.300, 0.111
261.400, 0.107
261.500, 0.106
261.600, 0.102
261.700, 0.107
261.800, 0.100
261.900, 0.110
262.000, 0.103
262.100, 0.094
262.200, 0.085
262.300, 0.098
262.400, 0.102
262.500, 0.100
262.600, 0.100
262.700, 0.093
262.800, 0.082
262.900, 0.087
263.000, 0.097
263.100, 0.090
263.200, 0.090
263.300, 0.084
263.400, 0.088
263.500, 0.087
263.600, 0.086
263.700, 0.091
263.800, 0.096
263.900, 0.089
264.000, 0.097
264.100, 0.093
264.200, 0.085
264.300, 0.092
264.400, 0.088
264.500, 0.082
264.600, 0.097
264.700, 0.096
264.800, 0.091
264.900, 0.089
265.000, 0.088
265.100, 0.088
265.200, 0.085
265.300, 0.090
265.400, 0.095
265.500, 0.090
265.600, 0.092
265.700, 0.099
265.800, 0.095
265.900, 0.090
266.000, 0.097
266.100, 0.091
266.200, 0.093
266.300, 0.106
266.400, 0.095
266.500, 0.090
266.600, 0.091
266.700, 0.093
266.800, 0.093
266.900, 0.090
267.000, 0.103
267.100, 0.092
267.200, 0.091
267.300, 0.089
267.400, 0.078
267.500, 0.088
267.600, 0.093
267.700, 0.091
267.800, 0.095
267.900, 0.092
268.000, 0.077
268.100, 0.095
268.200, 0.099
268.300, 0.103
268.400, 0.097
268.500, 0.095
268.600, 0.095
268.700, 0.096
268.800, 0.087
268.900, 0.096
269.000, 0.099
269.100, 0.096
269.200, 0.099
269.300, 0.102
269.400, 0.096
269.500, 0.100
269.600, 0.097
269.700, 0.098
269.800, 0.088
269.900, 0.098
270.000, 0.101
270.100, 0.100
270.200, 0.093
270.300, 0.088
270.400, 0.094
270.500, 0.102
270.600, 0.094
270.700, 0.092
270.800, 0.103
270.900, 0.093
271.000, 0.090
271.100, 0.102
271.200, 0.101
271.300, 0.103
271.400, 0.099
271.500, 0.105
271.600, 0.100
271.700, 0.104
271.800, 0.098
271.900, 0.097
272.000, 0.101
272.100, 0.103
272.200, 0.100
272.300, 0.101
272.400, 0.095
272.500, 0.103
272.600, 0.104
272.700, 0.103
272.800, 0.089
272.900, 0.095
273.000, 0.101
273.100, 0.096
273.200, 0.099
273.300, 0.095
273.400, 0.090
273.500, 0.095
273.600, 0.099
273.700, 0.096
273.800, 0.093
273.900, 0.105
274.000, 0.109
274.100, 0.096
274.200, 0.098
274.300, 0.099
274.400, 0.093
274.500, 0.105
274.600, 0.114
274.700, 0.104
274.800, 0.107
274.900, 0.108
275.000, 0.115
275.100, 0.106
275.200, 0.114
275.300, 0.110
275.400, 0.109
275.500, 0.109
275.600, 0.102
275.700, 0.099
275.800, 0.107
275.900, 0.103
276.000, 0.104
276.100, 0.101
276.200, 0.099
276.300, 0.098
276.400, 0.109
276.500, 0.106
276.600, 0.112
276.700, 0.109
276.800, 0.115
276.900, 0.095
277.000, 0.101
277.100, 0.110
277.200, 0.094
277.300, 0.105
277.400, 0.110
277.500, 0.110
277.600, 0.106
277.700, 0.102
277.800, 0.096
277.900, 0.105
278.000, 0.095
278.100, 0.104
278.200, 0.098
278.300, 0.098
278.400, 0.088
278.500, 0.092
278.600, 0.102
278.700, 0.111
278.800, 0.099
278.900, 0.101
279.000, 0.103
279.100, 0.097
279.200, 0.107
279.300, 0.098
279.400, 0.102
279.500, 0.097
279.600, 0.098
279.700, 0.099
279.800, 0.097
279.900, 0.104
280.000, 0.089
280.100, 0.100
280.200, 0.098
280.300, 0.110
280.400, 0.112
280.500, 0.110
280.600, 0.101
280.700, 0.115
280.800, 0.107
280.900, 0.103
281.000, 0.110
281.100, 0.115
281.200, 0.111
281.300, 0.104
281.400, 0.103
281.500, 0.106
281.600, 0.110
281.700, 0.108
281.800, 0.105
281.900, 0.102
282.000, 0.100
282.100, 0.106
282.200, 0.091
282.300, 0.095
282.400, 0.095
282.500, 0.103
282.600, 0.104
282.700, 0.101
282.800, 0.099
282.900, 0.103
283.000, 0.107
283.100, 0.094
283.200, 0.101
283.300, 0.111
283.400, 0.106
283.500, 0.106
283.600, 0.102
283.700, 0.101
283.800, 0.101
283.900, 0.100
284.000, 0.099
284.100, 0.099
284.200, 0.094
284.300, 0.080
284.400, 0.096
284.500, 0.090
284.600, 0.092
284.700, 0.095
284.800, 0.096
284.900, 0.096
285.000, 0.093
285.100, 0.094
285.200, 0.096
285.300, 0.097
285.400, 0.086
285.500, 0.092
285.600, 0.097
285.700, 0.104
285.800, 0.098
285.900, 0.096
286.000, 0.103
286.100, 0.103
286.200, 0.093
286.300, 0.095
286.400, 0.097
286.500, 0.105
286.600, 0.100
286.700, 0.100
286.800, 0.097
286.900, 0.097
287.000, 0.103
287.100, 0.097
287.200, 0.095
287.300, 0.092
287.400, 0.082
287.500, 0.092
287.600, 0.094
287.700, 0.092
287.800, 0.100
287.900, 0.094
288.000, 0.095
288.100, 0.096
288.200, 0.100
288.300, 0.114
288.400, 0.092
288.500, 0.107
288.600, 0.109
288.700, 0.112
288.800, 0.109
288.900, 0.099
289.000, 0.107
289.100, 0.103
289.200, 0.097
289.300, 0.104
289.400, 0.104
289.500, 0.108
289.600, 0.108
289.700, 0.099
289.800, 0.101
289.900, 0.110
290.000, 0.100
290.100, 0.097
290.200, 0.113
290.300, 0.104
290.400, 0.109
290.500, 0.110
290.600, 0.109
290.700, 0.104
290.800, 0.103
290.900, 0.097
291.000, 0.095
291.100, 0.095
291.200, 0.089
291.300, 0.086
291.400, 0.089
291.500, 0.085
291.600, 0.090
291.700, 0.095
291.800, 0.094
291.900, 0.094
292.000, 0.088
292.100, 0.085
292.200, 0.085
292.300, 0.089
292.400, 0.098
292.500, 0.097
292.600, 0.087
292.700, 0.087
292.800, 0.094
292.900, 0.100
293.000, 0.106
293.100, 0.102
293.200, 0.092
293.300, 0.097
293.400, 0.103
293.500, 0.097
293.600, 0.092
293.700, 0.105
293.800, 0.091
293.900, 0.098
294.000, 0.097
294.100, 0.096
294.200, 0.093
294.300, 0.107
294.400, 0.094
294.500, 0.102
294.600, 0.102
294.700, 0.102
294.800, 0.096
294.900, 0.104
295.000, 0.105
295.100, 0.091
295.200, 0.094
295.300, 0.084
295.400, 0.089
295.500, 0.092
295.600, 0.092
295.700, 0.091
295.800, 0.086
295.900, 0.085
296.000, 0.092
296.100, 0.089
296.200, 0.098
296.300, 0.099
296.400, 0.093
296.500, 0.098
296.600, 0.103
296.700, 0.093
296.800, 0.093
296.900, 0.095
297.000, 0.096
297.100, 0.096
297.200, 0.104
297.300, 0.096
297.400, 0.090
297.500, 0.102
297.600, 0.096
297.700, 0.099
297.800, 0.094
297.900, 0.089
298.000, 0.087
298.100, 0.079
298.200, 0.098
298.300, 0.088
298.400, 0.088
298.500, 0.082
298.600, 0.084
298.700, 0.088
298.800, 0.082
298.900, 0.091
299.000, 0.088
299.100, 0.079
299.200, 0.082
299.300, 0.088
299.400, 0.081
299.500, 0.088
299.600, 0.088
299.700, 0.088
299.800, 0.086
299.900, 0.087
300.000, 0.098
300.100, 0.095
300.200, 0.094
300.300, 0.093
300.400, 0.108
300.500, 0.108
300.600, 0.097
300.700, 0.099
300.800, 0.100
300.900, 0.093
301.000, 0.091
301.100, 0.095
301.200, 0.107
301.300, 0.091
301.400, 0.105
301.500, 0.103
301.600, 0.107
301.700, 0.097
301.800, 0.101
301.900, 0.101
302.000, 0.103
302.100, 0.098
302.200, 0.107
302.300, 0.096
302.400, 0.111
302.500, 0.112
302.600, 0.101
302.700, 0.102
302.800, 0.100
302.900, 0.104
303.000, 0.095
303.100, 0.094
303.200, 0.089
303.300, 0.100
303.400, 0.104
303.500, 0.094
303.600, 0.089
303.700, 0.086
303.800, 0.093
303.900, 0.098
304.000, 0.092
304.100, 0.099
304.200, 0.094
304.300, 0.099
304.400, 0.093
304.500, 0.099
304.600, 0.094
304.700, 0.101
304.800, 0.100
304.900, 0.091
305.000, 0.101
305.100, 0.097
305.200, 0.102
305.300, 0.107
305.400, 0.102
305.500, 0.107
305.600, 0.107
305.700, 0.106
305.800, 0.101
305.900, 0.096
306.000, 0.105
306.100, 0.105
306.200, 0.116
306.300, 0.123
306.400, 0.120
306.500, 0.105
306.600, 0.103
306.700, 0.112
306.800, 0.117
306.900, 0.128
307.000, 0.121
307.100, 0.120
307.200, 0.119
307.300, 0.133
307.400, 0.116
307.500, 0.118
307.600, 0.108
307.700, 0.105
307.800, 0.103
307.900, 0.100
308.000, 0.094
308.100, 0.092
308.200, 0.093
308.300, 0.085
308.400, 0.093
308.500, 0.087
308.600, 0.098
308.700, 0.092
308.800, 0.101
308.900, 0.094
309.000, 0.094
309.100, 0.100
309.200, 0.115
309.300, 0.096
309.400, 0.092
309.500, 0.096
309.600, 0.095
309.700, 0.097
309.800, 0.097
309.900, 0.092
310.000, 0.097
310.100, 0.085
310.200, 0.097
310.300, 0.097
310.400, 0.094
310.500, 0.090
310.600, 0.101
310.700, 0.098
310.800, 0.092
310.900, 0.093
311.000, 0.098
311.100, 0.093
311.200, 0.095
311.300, 0.094
311.400, 0.103
311.500, 0.094
311.600, 0.097
311.700, 0.106
311.800, 0.094
311.900, 0.093
312.000, 0.090
312.100, 0.087
312.200, 0.091
312.300, 0.095
312.400, 0.101
312.500, 0.091
312.600, 0.096
312.700, 0.092
312.800, 0.099
312.900, 0.105
313.000, 0.106
313.100, 0.094
313.200, 0.086
313.300, 0.094
313.400, 0.093
313.500, 0.094
313.600, 0.098
313.700, 0.090
313.800, 0.100
313.900, 0.088
314.000, 0.103
314.100, 0.097
314.200, 0.100
314.300, 0.100
314.400, 0.098
314.500, 0.100
314.600, 0.097
314.700, 0.094
314.800, 0.084
314.900, 0.083
315.000, 0.097
315.100, 0.100
315.200, 0.098
315.300, 0.090
315.400, 0.089
315.500, 0.091
315.600, 0.090
315.700, 0.086
315.800, 0.089
315.900, 0.097
316.000, 0.086
316.100, 0.089
316.200, 0.093
316.300, 0.105
316.400, 0.097
316.500, 0.093
316.600, 0.091
316.700, 0.088
316.800, 0.085
316.900, 0.099
317.000, 0.112
317.100, 0.109
317.200, 0.093
317.300, 0.088
317.400, 0.094
317.500, 0.103
317.600, 0.095
317.700, 0.091
317.800, 0.088
317.900, 0.096
318.000, 0.093
318.100, 0.089
318.200, 0.090
318.300, 0.090
318.400, 0.092
318.500, 0.097
318.600, 0.102
318.700, 0.103
318.800, 0.099
318.900, 0.110
319.000, 0.101
319.100, 0.110
319.200, 0.100
319.300, 0.102
319.400, 0.108
319.500, 0.095
319.600, 0.110
319.700, 0.091
319.800, 0.102
319.900, 0.098
320.000, 0.093
320.100, 0.087
320.200, 0.093
320.300, 0.096
320.400, 0.100
320.500, 0.100
320.600, 0.087
320.700, 0.098
320.800, 0.098
320.900, 0.098
321.000, 0.100
321.100, 0.097
321.200, 0.106
321.300, 0.099
321.400, 0.113
321.500, 0.096
321.600, 0.096
321.700, 0.090
321.800, 0.092
321.900, 0.091
322.000, 0.099
322.100, 0.092
322.200, 0.092
322.300, 0.091
322.400, 0.093
322.500, 0.102
322.600, 0.103
322.700, 0.096
322.800, 0.106
322.900, 0.116
323.000, 0.106
323.100, 0.117
323.200, 0.124
323.300, 0.115
323.400, 0.114
323.500, 0.118
323.600, 0.119
323.700, 0.116
323.800, 0.107
323.900, 0.096
324.000, 0.107
324.100, 0.098
324.200, 0.110
324.300, 0.104
324.400, 0.095
324.500, 0.108
324.600, 0.111
324.700, 0.111
324.800, 0.116
324.900, 0.106
325.000, 0.107
325.100, 0.106
325.200, 0.108
325.300, 0.104
325.400, 0.100
325.500, 0.093
325.600, 0.104
325.700, 0.095
325.800, 0.098
325.900, 0.092
326.000, 0.101
326.100, 0.097
326.200, 0.095
326.300, 0.098
326.400, 0.103
326.500, 0.093
326.600, 0.100
326.700, 0.091
326.800, 0.099
326.900, 0.099
327.000, 0.100
327.100, 0.106
327.200, 0.098
327.300, 0.104
327.400, 0.101
327.500, 0.097
327.600, 0.101
327.700, 0.097
327.800, 0.104
327.900, 0.102
328.000, 0.097
328.100, 0.096
328.200, 0.103
328.300, 0.100
328.400, 0.092
328.500, 0.100
328.600, 0.099
328.700, 0.100
328.800, 0.103
328.900, 0.109
329.000, 0.110
329.100, 0.120
329.200, 0.112
329.300, 0.102
329.400, 0.095
329.500, 0.102
329.600, 0.108
329.700, 0.095
329.800, 0.098
329.900, 0.104
330.000, 0.099
330.100, 0.100
330.200, 0.100
330.300, 0.099
330.400, 0.101
330.500, 0.091
330.600, 0.095
330.700, 0.093
330.800, 0.094
330.900, 0.088
331.000, 0.099
331.100, 0.093
331.200, 0.085
331.300, 0.095
331.400, 0.107
331.500, 0.098
331.600, 0.099
331.700, 0.097
331.800, 0.107
331.900, 0.104
332.000, 0.103
332.100, 0.101
332.200, 0.103
332.300, 0.101
332.400, 0.102
332.500, 0.097
332.600, 0.102
332.700, 0.093
332.800, 0.099
332.900, 0.104
333.000, 0.098
333.100, 0.092
333.200, 0.094
333.300, 0.096
333.400, 0.093
333.500, 0.095
333.600, 0.092
333.700, 0.089
333.800, 0.090
333.900, 0.096
334.000, 0.101
334.100, 0.106
334.200, 0.093
334.300, 0.110
334.400, 0.098
334.500, 0.092
334.600, 0.095
334.700, 0.098
334.800, 0.092
334.900, 0.095
335.000, 0.100
335.100, 0.085
335.200, 0.090
335.300, 0.089
335.400, 0.087
335.500, 0.092
335.600, 0.091
335.700, 0.090
335.800, 0.093
335.900, 0.092
336.000, 0.094
336.100, 0.102
336.200, 0.097
336.300, 0.098
336.400, 0.102
336.500, 0.104
336.600, 0.093
336.700, 0.088
336.800, 0.094
336.900, 0.098
337.000, 0.109
337.100, 0.101
337.200, 0.091
337.300, 0.098
337.400, 0.096
337.500, 0.115
337.600, 0.095
337.700, 0.095
337.800, 0.091
337.900, 0.097
338.000, 0.093
338.100, 0.095
338.200, 0.105
338.300, 0.088
338.400, 0.098
338.500, 0.096
338.600, 0.095
338.700, 0.100
338.800, 0.104
338.900, 0.101
339.000, 0.107
339.100, 0.096
339.200, 0.104
339.300, 0.095
339.400, 0.096
339.500, 0.108
339.600, 0.108
339.700, 0.103
339.800, 0.110
339.900, 0.113
340.000, 0.107
340.100, 0.100
340.200, 0.100
340.300, 0.096
340.400, 0.093
340.500, 0.107
340.600, 0.099
340.700, 0.095
340.800, 0.103
340.900, 0.101
341.000, 0.102
341.100, 0.096
341.200, 0.095
341.300, 0.104
341.400, 0.090
341.500, 0.098
341.600, 0.093
341.700, 0.103
341.800, 0.092
341.900, 0.088
342.000, 0.089
342.100, 0.090
342.200, 0.087
342.300, 0.091
342.400, 0.100
342.500, 0.103
342.600, 0.104
342.700, 0.089
342.800, 0.091
342.900, 0.087
343.000, 0.098
343.100, 0.102
343.200, 0.087
343.300, 0.086
343.400, 0.091
343.500, 0.087
343.600, 0.095
343.700, 0.100
343.800, 0.102
343.900, 0.098
344.000, 0.101
344.100, 0.096
344.200, 0.095
344.300, 0.084
344.400, 0.086
344.500, 0.091
344.600, 0.091
344.700, 0.098
344.800, 0.097
344.900, 0.089
345.000, 0.098
345.100, 0.085
345.200, 0.083
345.300, 0.082
345.400, 0.095
345.500, 0.093
345.600, 0.107
345.700, 0.089
345.800, 0.098
345.900, 0.088
346.000, 0.099
346.100, 0.102
346.200, 0.095
346.300, 0.085
346.400, 0.092
346.500, 0.098
346.600, 0.091
346.700, 0.097
346.800, 0.095
346.900, 0.089
347.000, 0.086
347.100, 0.092
347.200, 0.084
347.300, 0.089
347.400, 0.094
347.500, 0.088
347.600, 0.079
347.700, 0.092
347.800, 0.085
347.900, 0.088
348.000, 0.088
348.100, 0.098
348.200, 0.094
348.300, 0.091
348.400, 0.095
348.500, 0.091
348.600, 0.095
348.700, 0.089
348.800, 0.088
348.900, 0.085
349.000, 0.095
349.100, 0.092
349.200, 0.094
349.300, 0.105
349.400, 0.097
349.500, 0.099
349.600, 0.095
349.700, 0.095
349.800, 0.097
349.900, 0.095
350.000, 0.090
350.100, 0.092
350.200, 0.091
350.300, 0.093
350.400, 0.099
350.500, 0.093
350.600, 0.090
350.700, 0.095
350.800, 0.095
350.900, 0.090
351.000, 0.097
351.100, 0.094
351.200, 0.095
351.300, 0.093
351.400, 0.097
351.500, 0.101
351.600, 0.092
351.700, 0.088
351.800, 0.090
351.900, 0.098
352.000, 0.092
352.100, 0.097
352.200, 0.087
352.300, 0.094
352.400, 0.090
352.500, 0.096
352.600, 0.090
352.700, 0.086
352.800, 0.090
352.900, 0.096
353.000, 0.092
353.100, 0.104
353.200, 0.097
353.300, 0.107
353.400, 0.107
353.500, 0.100
353.600, 0.099
353.700, 0.091
353.800, 0.095
353.900, 0.097
354.000, 0.096
354.100, 0.107
354.200, 0.103
354.300, 0.103
354.400, 0.101
354.500, 0.112
354.600, 0.110
354.700, 0.096
354.800, 0.098
354.900, 0.103
355.000, 0.093
355.100, 0.096
355.200, 0.100
355.300, 0.090
355.400, 0.092
355.500, 0.097
355.600, 0.098
355.700, 0.103
355.800, 0.092
355.900, 0.093
356.000, 0.093
356.100, 0.085
356.200, 0.082
356.300, 0.083
356.400, 0.098
356.500, 0.094
356.600, 0.092
356.700, 0.092
356.800, 0.089
356.900, 0.093
357.000, 0.107
357.100, 0.094
357.200, 0.105
357.300, 0.091
357.400, 0.095
357.500, 0.093
357.600, 0.098
357.700, 0.094
357.800, 0.092
357.900, 0.089
358.000, 0.097
358.100, 0.099
358.200, 0.099
358.300, 0.093
358.400, 0.091
358.500, 0.096
358.600, 0.084
358.700, 0.109
358.800, 0.089
358.900, 0.086
359.000, 0.088
359.100, 0.088
359.200, 0.097
359.300, 0.088
359.400, 0.093
359.500, 0.098
359.600, 0.098
359.700, 0.091
359.800, 0.089
359.900, 0.092
360.000, 0.082
360.100, 0.085
360.200, 0.093
360.300, 0.097
360.400, 0.083
360.500, 0.086
360.600, 0.093
360.700, 0.086
360.800, 0.088
360.900, 0.094
361.000, 0.100
361.100, 0.096
361.200, 0.092
361.300, 0.090
361.400, 0.093
361.500, 0.090
361.600, 0.085
361.700, 0.081
361.800, 0.088
361.900, 0.093
362.000, 0.087
362.100, 0.096
362.200, 0.097
362.300, 0.099
362.400, 0.085
362.500, 0.090
362.600, 0.098
362.700, 0.104
362.800, 0.097
362.900, 0.100
363.000, 0.098
363.100, 0.102
363.200, 0.096
363.300, 0.097
363.400, 0.101
363.500, 0.097
363.600, 0.103
363.700, 0.098
363.800, 0.098
363.900, 0.092
364.000, 0.100
364.100, 0.099
364.200, 0.100
364.300, 0.098
364.400, 0.095
364.500, 0.094
364.600, 0.111
364.700, 0.108
364.800, 0.105
364.900, 0.112
365.000, 0.111
365.100, 0.105
365.200, 0.099
365.300, 0.094
365.400, 0.098
365.500, 0.096
365.600, 0.094
365.700, 0.088
365.800, 0.096
365.900, 0.103
366.000, 0.102
366.100, 0.107
366.200, 0.106
366.300, 0.105
366.400, 0.101
366.500, 0.108
366.600, 0.108
366.700, 0.100
366.800, 0.104
366.900, 0.101
367.000, 0.107
367.100, 0.093
367.200, 0.097
367.300, 0.094
367.400, 0.095
367.500, 0.097
367.600, 0.099
367.700, 0.104
367.800, 0.101
367.900, 0.112
368.000, 0.114
368.100, 0.113
368.200, 0.115
368.300, 0.111
368.400, 0.107
368.500, 0.107
368.600, 0.109
368.700, 0.103
368.800, 0.100
368.900, 0.104
369.000, 0.112
369.100, 0.110
369.200, 0.112
369.300, 0.110
369.400, 0.113
369.500, 0.098
369.600, 0.099
369.700, 0.102
369.800, 0.105
369.900, 0.102
370.000, 0.099
370.100, 0.103
370.200, 0.104
370.300, 0.091
370.400, 0.105
370.500, 0.109
370.600, 0.105
370.700, 0.106
370.800, 0.106
370.900, 0.105
371.000, 0.109
371.100, 0.105
371.200, 0.102
371.300, 0.107
371.400, 0.113
371.500, 0.100
371.600, 0.105
371.700, 0.099
371.800, 0.100
371.900, 0.096
372.000, 0.102
372.100, 0.109
372.200, 0.100
372.300, 0.096
372.400, 0.101
372.500, 0.102
372.600, 0.103
372.700, 0.098
372.800, 0.095
372.900, 0.104
373.000, 0.106
373.100, 0.124
373.200, 0.112
373.300, 0.109
373.400, 0.119
373.500, 0.104
373.600, 0.107
373.700, 0.110
373.800, 0.102
373.900, 0.104
374.000, 0.099
374.100, 0.091
374.200, 0.099
374.300, 0.096
374.400, 0.093
374.500, 0.099
374.600, 0.094
374.700, 0.107
374.800, 0.107
374.900, 0.104
375.000, 0.107
375.100, 0.090
375.200, 0.099
375.300, 0.091
375.400, 0.096
375.500, 0.097
375.600, 0.089
375.700, 0.094
375.800, 0.100
375.900, 0.096
376.000, 0.107
376.100, 0.100
376.200, 0.097
376.300, 0.104
376.400, 0.098
376.500, 0.101
376.600, 0.090
376.700, 0.102
376.800, 0.100
376.900, 0.104
377.000, 0.093
377.100, 0.092
377.200, 0.099
377.300, 0.096
377.400, 0.096
377.500, 0.097
377.600, 0.107
377.700, 0.100
377.800, 0.098
377.900, 0.091
378.000, 0.098
378.100, 0.099
378.200, 0.099
378.300, 0.084
378.400, 0.096
378.500, 0.103
378.600, 0.105
378.700, 0.105
378.800, 0.089
378.900, 0.095
379.000, 0.092
379.100, 0.089
379.200, 0.100
379.300, 0.099
379.400, 0.093
379.500, 0.085
379.600, 0.094
379.700, 0.092
379.800, 0.101
379.900, 0.098
380.000, 0.104
380.100, 0.098
380.200, 0.090
380.300, 0.104
380.400, 0.100
380.500, 0.102
380.600, 0.090
380.700, 0.093
380.800, 0.092
380.900, 0.108
381.000, 0.108
381.100, 0.100
381.200, 0.100
381.300, 0.100
381.400, 0.099
381.500, 0.097
381.600, 0.098
381.700, 0.098
381.800, 0.112
381.900, 0.106
382.000, 0.110
382.100, 0.094
382.200, 0.092
382.300, 0.093
382.400, 0.101
382.500, 0.090
382.600, 0.091
382.700, 0.095
382.800, 0.100
382.900, 0.096
383.000, 0.090
383.100, 0.093
383.200, 0.090
383.300, 0.086
383.400, 0.094
383.500, 0.088
383.600, 0.079
383.700, 0.092
383.800, 0.089
383.900, 0.091
384.000, 0.090
384.100, 0.108
384.200, 0.094
384.300, 0.095
384.400, 0.102
384.500, 0.090
384.600, 0.100
384.700, 0.098
384.800, 0.094
384.900, 0.095
385.000, 0.092
385.100, 0.093
385.200, 0.088
385.300, 0.094
385.400, 0.096
385.500, 0.093
385.600, 0.086
385.700, 0.089
385.800, 0.095
385.900, 0.085
386.000, 0.094
386.100, 0.087
386.200, 0.093
386.300, 0.096
386.400, 0.099
386.500, 0.086
386.600, 0.091
386.700, 0.098
386.800, 0.092
386.900, 0.105
387.000, 0.095
387.100, 0.093
387.200, 0.101
387.300, 0.090
387.400, 0.088
387.500, 0.091
387.600, 0.094
387.700, 0.094
387.800, 0.100
387.900, 0.091
388.000, 0.102
388.100, 0.102
388.200, 0.102
388.300, 0.103
388.400, 0.108
388.500, 0.103
388.600, 0.098
388.700, 0.096
388.800, 0.102
388.900, 0.098
389.000, 0.101
389.100, 0.096
389.200, 0.091
389.300, 0.101
389.400, 0.101
389.500, 0.113
389.600, 0.113
389.700, 0.109
389.800, 0.101
389.900, 0.108
390.000, 0.100
390.100, 0.113
390.200, 0.114
390.300, 0.113
390.400, 0.113
390.500, 0.118
390.600, 0.114
390.700, 0.110
390.800, 0.113
390.900, 0.111
391.000, 0.111
391.100, 0.113
391.200, 0.111
391.300, 0.104
391.400, 0.106
391.500, 0.101
391.600, 0.098
391.700, 0.106
391.800, 0.097
391.900, 0.103
392.000, 0.109
392.100, 0.101
392.200, 0.101
392.300, 0.096
392.400, 0.102
392.500, 0.099
392.600, 0.113
392.700, 0.099
392.800, 0.089
392.900, 0.098
393.000, 0.097
393.100, 0.103
393.200, 0.100
393.300, 0.092
393.400, 0.106
393.500, 0.103
393.600, 0.094
393.700, 0.096
393.800, 0.092
393.900, 0.103
394.000, 0.095
394.100, 0.100
394.200, 0.101
394.300, 0.107
394.400, 0.101
394.500, 0.104
394.600, 0.107
394.700, 0.098
394.800, 0.100
394.900, 0.101
395.000, 0.103
395.100, 0.097
395.200, 0.101
395.300, 0.092
395.400, 0.100
395.500, 0.094
395.600, 0.092
395.700, 0.092
395.800, 0.092
395.900, 0.094
396.000, 0.092
396.100, 0.089
396.200, 0.092
396.300, 0.092
396.400, 0.095
396.500, 0.088
396.600, 0.107
396.700, 0.111
396.800, 0.102
396.900, 0.100
397.000, 0.098
397.100, 0.100
397.200, 0.103
397.300, 0.100
397.400, 0.103
397.500, 0.102
397.600, 0.102
397.700, 0.090
397.800, 0.103
397.900, 0.099
398.000, 0.104
398.100, 0.106
398.200, 0.099
398.300, 0.091
398.400, 0.102
398.500, 0.092
398.600, 0.104
398.700, 0.095
398.800, 0.098
398.900, 0.093
399.000, 0.106
399.100, 0.104
399.200, 0.100
399.300, 0.098
399.400, 0.107
399.500, 0.105
399.600, 0.104
399.700, 0.104
399.800, 0.108
399.900, 0.113
400.000, 0.113
400.100, 0.114
400.200, 0.107
400.300, 0.101
400.400, 0.094
400.500, 0.102
400.600, 0.108
400.700, 0.107
400.800, 0.101
400.900, 0.101
401.000, 0.113
401.100, 0.107
401.200, 0.102
401.300, 0.098
401.400, 0.097
401.500, 0.093
401.600, 0.096
401.700, 0.094
401.800, 0.092
401.900, 0.095
402.000, 0.101
402.100, 0.097
402.200, 0.093
402.300, 0.098
402.400, 0.094
402.500, 0.094
402.600, 0.096
402.700, 0.105
402.800, 0.105
402.900, 0.095
403.000, 0.099
403.100, 0.093
403.200, 0.092
403.300, 0.102
403.400, 0.095
403.500, 0.095
403.600, 0.088
403.700, 0.086
403.800, 0.091
403.900, 0.086
404.000, 0.094
404.100, 0.092
404.200, 0.101
404.300, 0.102
404.400, 0.098
404.500, 0.100
404.600, 0.092
404.700, 0.101
404.800, 0.095
404.900, 0.096
405.000, 0.092
405.100, 0.090
405.200, 0.095
405.300, 0.101
405.400, 0.110
405.500, 0.096
405.600, 0.101
405.700, 0.109
405.800, 0.101
405.900, 0.097
406.000, 0.091
406.100, 0.094
406.200, 0.088
406.300, 0.094
406.400, 0.097
406.500, 0.090
406.600, 0.100
406.700, 0.093
406.800, 0.102
406.900, 0.093
407.000, 0.099
407.100, 0.099
407.200, 0.100
407.300, 0.104
407.400, 0.103
407.500, 0.093
407.600, 0.100
407.700, 0.089
407.800, 0.102
407.900, 0.100
408.000, 0.101
408.100, 0.097
408.200, 0.102
408.300, 0.095
408.400, 0.101
408.500, 0.100
408.600, 0.096
408.700, 0.095
408.800, 0.106
408.900, 0.101
409.000, 0.103
409.100, 0.105
409.200, 0.101
409.300, 0.108
409.400, 0.104
409.500, 0.111
409.600, 0.097
409.700, 0.089
409.800, 0.100
409.900, 0.100
410.000, 0.107
410.100, 0.100
410.200, 0.090
410.300, 0.090
410.400, 0.097
410.500, 0.106
410.600, 0.098
410.700, 0.100
410.800, 0.094
410.900, 0.098
411.000, 0.094
411.100, 0.094
411.200, 0.102
411.300, 0.100
411.400, 0.091
411.500, 0.089
411.600, 0.097
411.700, 0.094
411.800, 0.104
411.900, 0.109
412.000, 0.112
412.100, 0.107
412.200, 0.098
412.300, 0.098
412.400, 0.114
412.500, 0.106
412.600, 0.108
412.700, 0.097
412.800, 0.100
412.900, 0.101
413.000, 0.100
413.100, 0.092
413.200, 0.106
413.300, 0.104
413.400, 0.111
413.500, 0.105
413.600, 0.098
413.700, 0.101
413.800, 0.096
413.900, 0.094
414.000, 0.093
414.100, 0.101
414.200, 0.108
414.300, 0.105
414.400, 0.096
414.500, 0.101
414.600, 0.101
414.700, 0.102
414.800, 0.104
414.900, 0.091
415.000, 0.101
415.100, 0.111
415.200, 0.101
415.300, 0.110
415.400, 0.101
415.500, 0.109
415.600, 0.106
415.700, 0.095
415.800, 0.105
415.900, 0.115
416.000, 0.101
416.100, 0.098
416.200, 0.105
416.300, 0.113
416.400, 0.106
416.500, 0.113
416.600, 0.100
416.700, 0.102
416.800, 0.116
416.900, 0.118
417.000, 0.117
417.100, 0.107
417.200, 0.103
417.300, 0.117
417.400, 0.113
417.500, 0.121
417.600, 0.117
417.700, 0.122
417.800, 0.108
417.900, 0.110
418.000, 0.111
418.100, 0.119
418.200, 0.102
418.300, 0.101
418.400, 0.104
418.500, 0.109
418.600, 0.104
418.700, 0.109
418.800, 0.103
418.900, 0.109
419.000, 0.115
419.100, 0.116
419.200, 0.115
419.300, 0.104
419.400, 0.111
419.500, 0.113
419.600, 0.100
419.700, 0.113
419.800, 0.111
419.900, 0.109
420.000, 0.096
420.100, 0.109
420.200, 0.119
420.300, 0.131
420.400, 0.117
420.500, 0.116
420.600, 0.114
420.700, 0.113
420.800, 0.114
420.900, 0.110
421.000, 0.115
421.100, 0.117
421.200, 0.102
421.300, 0.113
421.400, 0.102
421.500, 0.108
421.600, 0.117
421.700, 0.108
421.800, 0.106
421.900, 0.110
422.000, 0.103
422.100, 0.112
422.200, 0.110
422.300, 0.108
422.400, 0.106
422.500, 0.107
422.600, 0.092
422.700, 0.095
422.800, 0.091
422.900, 0.111
423.000, 0.102
423.100, 0.106
423.200, 0.099
423.300, 0.110
423.400, 0.110
423.500, 0.109
423.600, 0.112
423.700, 0.113
423.800, 0.116
423.900, 0.107
424.000, 0.095
424.100, 0.109
424.200, 0.106
424.300, 0.109
424.400, 0.117
424.500, 0.113
424.600, 0.105
424.700, 0.109
424.800, 0.109
424.900, 0.112
425.000, 0.106
425.100, 0.108
425.200, 0.106
425.300, 0.102
425.400, 0.105
425.500, 0.112
425.600, 0.112
425.700, 0.104
425.800, 0.104
425.900, 0.108
426.000, 0.099
426.100, 0.110
426.200, 0.099
426.300, 0.107
426.400, 0.111
426.500, 0.104
426.600, 0.108
426.700, 0.100
426.800, 0.103
426.900, 0.111
427.000, 0.103
427.100, 0.111
427.200, 0.114
427.300, 0.116
427.400, 0.119
427.500, 0.114
427.600, 0.105
427.700, 0.113
427.800, 0.104
427.900, 0.106
428.000, 0.100
428.100, 0.097
428.200, 0.099
428.300, 0.096
428.400, 0.103
428.500, 0.103
428.600, 0.112
428.700, 0.111
428.800, 0.094
428.900, 0.101
429.000, 0.105
429.100, 0.105
429.200, 0.105
429.300, 0.107
429.400, 0.112
429.500, 0.108
429.600, 0.104
429.700, 0.104
429.800, 0.112
429.900, 0.108
430.000, 0.102
430.100, 0.099
430.200, 0.108
430.300, 0.107
430.400, 0.110
430.500, 0.106
430.600, 0.099
430.700, 0.094
430.800, 0.096
430.900, 0.096
431.000, 0.097
431.100, 0.088
431.200, 0.098
431.300, 0.094
431.400, 0.093
431.500, 0.094
431.600, 0.096
431.700, 0.098
431.800, 0.108
431.900, 0.109
432.000, 0.112
432.100, 0.104
432.200, 0.105
432.300, 0.100
432.400, 0.090
432.500, 0.098
432.600, 0.088
432.700, 0.101
432.800, 0.106
432.900, 0.110
433.000, 0.116
433.100, 0.120
433.200, 0.131
433.300, 0.116
433.400, 0.116
433.500, 0.115
433.600, 0.108
433.700, 0.114
433.800, 0.108
433.900, 0.108
434.000, 0.111
434.100, 0.111
434.200, 0.103
434.300, 0.107
434.400, 0.099
434.500, 0.113
434.600, 0.108
434.700, 0.102
434.800, 0.099
434.900, 0.089
435.000, 0.094
435.100, 0.090
435.200, 0.103
435.300, 0.101
435.400, 0.101
435.500, 0.101
435.600, 0.097
435.700, 0.095
435.800, 0.101
435.900, 0.095
436.000, 0.095
436.100, 0.104
436.200, 0.091
436.300, 0.100
436.400, 0.105
436.500, 0.098
436.600, 0.108
436.700, 0.100
436.800, 0.104
436.900, 0.095
437.000, 0.106
437.100, 0.113
437.200, 0.107
437.300, 0.101
437.400, 0.108
437.500, 0.104
437.600, 0.100
437.700, 0.102
437.800, 0.104
437.900, 0.098
438.000, 0.096
438.100, 0.093
438.200, 0.094
438.300, 0.103
438.400, 0.099
438.500, 0.098
438.600, 0.086
438.700, 0.089
438.800, 0.097
438.900, 0.095
439.000, 0.092
439.100, 0.095
439.200, 0.103
439.300, 0.103
439.400, 0.091
439.500, 0.106
439.600, 0.100
439.700, 0.099
439.800, 0.094
439.900, 0.094
440.000, 0.097
440.100, 0.089
440.200, 0.095
440.300, 0.100
440.400, 0.107
440.500, 0.106
440.600, 0.099
440.700, 0.102
440.800, 0.095
440.900, 0.104
441.000, 0.093
441.100, 0.096
441.200, 0.095
441.300, 0.103
441.400, 0.093
441.500, 0.097
441.600, 0.090
441.700, 0.085
441.800, 0.089
441.900, 0.101
442.000, 0.096
442.100, 0.097
442.200, 0.096
442.300, 0.095
442.400, 0.102
442.500, 0.113
442.600, 0.111
442.700, 0.114
442.800, 0.116
442.900, 0.124
443.000, 0.109
443.100, 0.111
443.200, 0.106
443.300, 0.108
443.400, 0.105
443.500, 0.107
443.600, 0.102
443.700, 0.101
443.800, 0.114
443.900, 0.108
444.000, 0.110
444.100, 0.106
444.200, 0.102
444.300, 0.106
444.400, 0.105
444.500, 0.104
444.600, 0.098
444.700, 0.108
444.800, 0.100
444.900, 0.099
445.000, 0.105
445.100, 0.101
445.200, 0.101
445.300, 0.105
445.400, 0.106
445.500, 0.107
445.600, 0.102
445.700, 0.113
445.800, 0.107
445.900, 0.119
446.000, 0.109
446.100, 0.114
446.200, 0.104
446.300, 0.105
446.400, 0.114
446.500, 0.120
446.600, 0.115
446.700, 0.115
446.800, 0.116
446.900, 0.119
447.000, 0.120
447.100, 0.112
447.200, 0.107
447.300, 0.112
447.400, 0.103
447.500, 0.108
447.600, 0.114
447.700, 0.117
447.800, 0.114
447.900, 0.102
448.000, 0.121
448.100, 0.124
448.200, 0.109
448.300, 0.113
448.400, 0.110
448.500, 0.117
448.600, 0.110
448.700, 0.113
448.800, 0.113
448.900, 0.113
449.000, 0.124
449.100, 0.126
449.200, 0.131
449.300, 0.125
449.400, 0.105
449.500, 0.113
449.600, 0.114
449.700, 0.117
449.800, 0.110
449.900, 0.102
450.000, 0.109
450.100, 0.118
450.200, 0.111
450.300, 0.126
450.400, 0.116
450.500, 0.125
450.600, 0.119
450.700, 0.131
450.800, 0.128
450.900, 0.119
451.000, 0.116
451.100, 0.119
451.200, 0.114
451.300, 0.131
451.400, 0.114
451.500, 0.111
451.600, 0.121
451.700, 0.128
451.800, 0.115
451.900, 0.129
452.000, 0.115
452.100, 0.124
452.200, 0.118
452.300, 0.117
452.400, 0.107
452.500, 0.115
452.600, 0.125
452.700, 0.131
452.800, 0.127
452.900, 0.125
453.000, 0.108
453.100, 0.096
453.200, 0.105
453.300, 0.101
453.400, 0.118
453.500, 0.114
453.600, 0.112
453.700, 0.113
453.800, 0.119
453.900, 0.108
454.000, 0.112
454.100, 0.117
454.200, 0.116
454.300, 0.110
454.400, 0.113
454.500, 0.104
454.600, 0.105
454.700, 0.111
454.800, 0.117
454.900, 0.112
455.000, 0.109
455.100, 0.116
455.200, 0.114
455.300, 0.121
455.400, 0.117
455.500, 0.112
455.600, 0.103
455.700, 0.113
455.800, 0.108
455.900, 0.119
456.000, 0.101
456.100, 0.105
456.200, 0.106
456.300, 0.103
456.400, 0.097
456.500, 0.105
456.600, 0.094
456.700, 0.097
456.800, 0.108
456.900, 0.103
457.000, 0.096
457.100, 0.112
457.200, 0.106
457.300, 0.102
457.400, 0.105
457.500, 0.095
457.600, 0.098
457.700, 0.105
457.800, 0.104
457.900, 0.093
458.000, 0.098
458.100, 0.092
458.200, 0.094
458.300, 0.090
458.400, 0.094
458.500, 0.102
458.600, 0.090
458.700, 0.092
458.800, 0.093
458.900, 0.102
459.000, 0.103
459.100, 0.110
459.200, 0.089
459.300, 0.083
459.400, 0.094
459.500, 0.098
459.600, 0.094
459.700, 0.100
459.800, 0.108
459.900, 0.109
460.000, 0.104
460.100, 0.115
460.200, 0.115
460.300, 0.106
460.400, 0.101
460.500, 0.105
460.600, 0.102
460.700, 0.104
460.800, 0.101
460.900, 0.108
461.000, 0.103
461.100, 0.104
461.200, 0.122
461.300, 0.120
461.400, 0.119
461.500, 0.112
461.600, 0.104
461.700, 0.104
461.800, 0.102
461.900, 0.101
462.000, 0.116
462.100, 0.116
462.200, 0.115
462.300, 0.129
462.400, 0.115
462.500, 0.110
462.600, 0.110
462.700, 0.110
462.800, 0.111
462.900, 0.122
463.000, 0.116
463.100, 0.113
463.200, 0.112
463.300, 0.108
463.400, 0.113
463.500, 0.102
463.600, 0.107
463.700, 0.108
463.800, 0.107
463.900, 0.110
464.000, 0.111
464.100, 0.121
464.200, 0.109
464.300, 0.105
464.400, 0.110
464.500, 0.118
464.600, 0.116
464.700, 0.102
464.800, 0.106
464.900, 0.112
465.000, 0.102
465.100, 0.100
465.200, 0.118
465.300, 0.106
465.400, 0.105
465.500, 0.104
465.600, 0.109
465.700, 0.124
465.800, 0.122
465.900, 0.118
466.000, 0.117
466.100, 0.118
466.200, 0.115
466.300, 0.108
466.400, 0.098
466.500, 0.110
466.600, 0.109
466.700, 0.113
466.800, 0.102
466.900, 0.102
467.000, 0.106
467.100, 0.118
467.200, 0.114
467.300, 0.107
467.400, 0.113
467.500, 0.114
467.600, 0.119
467.700, 0.106
467.800, 0.124
467.900, 0.129
468.000, 0.122
468.100, 0.124
468.200, 0.124
468.300, 0.116
468.400, 0.117
468.500, 0.115
468.600, 0.117
468.700, 0.127
468.800, 0.110
468.900, 0.097
469.000, 0.101
469.100, 0.106
469.200, 0.101
469.300, 0.102
469.400, 0.114
469.500, 0.107
469.600, 0.109
469.700, 0.112
469.800, 0.100
469.900, 0.099
470.000, 0.104
470.100, 0.112
470.200, 0.100
470.300, 0.106
470.400, 0.110
470.500, 0.106
470.600, 0.112
470.700, 0.114
470.800, 0.110
470.900, 0.116
471.000, 0.116
471.100, 0.103
471.200, 0.112
471.300, 0.103
471.400, 0.119
471.500, 0.106
471.600, 0.103
471.700, 0.111
471.800, 0.101
471.900, 0.105
472.000, 0.103
472.100, 0.105
472.200, 0.114
472.300, 0.111
472.400, 0.099
472.500, 0.116
472.600, 0.102
472.700, 0.110
472.800, 0.092
472.900, 0.092
473.000, 0.108
473.100, 0.103
473.200, 0.105
473.300, 0.108
473.400, 0.102
473.500, 0.108
473.600, 0.099
473.700, 0.102
473.800, 0.110
473.900, 0.100
474.000, 0.105
474.100, 0.091
474.200, 0.104
474.300, 0.094
474.400, 0.102
474.500, 0.107
474.600, 0.104
474.700, 0.117
474.800, 0.101
474.900, 0.104
475.000, 0.107
475.100, 0.111
475.200, 0.106
475.300, 0.107
475.400, 0.105
475.500, 0.103
475.600, 0.104
475.700, 0.110
475.800, 0.100
475.900, 0.096
476.000, 0.113
476.100, 0.109
476.200, 0.102
476.300, 0.113
476.400, 0.115
476.500, 0.119
476.600, 0.110
476.700, 0.109
476.800, 0.120
476.900, 0.103
477.000, 0.110
477.100, 0.112
477.200, 0.110
477.300, 0.114
477.400, 0.114
477.500, 0.112
477.600, 0.117
477.700, 0.113
477.800, 0.125
477.900, 0.113
478.000, 0.122
478.100, 0.107
478.200, 0.115
478.300, 0.118
478.400, 0.111
478.500, 0.112
478.600, 0.105
478.700, 0.111
478.800, 0.100
478.900, 0.106
479.000, 0.108
479.100, 0.110
479.200, 0.103
479.300, 0.113
479.400, 0.116
479.500, 0.100
479.600, 0.120
479.700, 0.112
479.800, 0.102
479.900, 0.112
480.000, 0.101
480.100, 0.110
480.200, 0.091
480.300, 0.110
480.400, 0.110
480.500, 0.111
480.600, 0.112
480.700, 0.105
480.800, 0.108
480.900, 0.104
481.000, 0.103
481.100, 0.102
481.200, 0.105
481.300, 0.111
481.400, 0.107
481.500, 0.103
481.600, 0.103
481.700, 0.102
481.800, 0.104
481.900, 0.104
482.000, 0.093
482.100, 0.092
482.200, 0.095
482.300, 0.110
482.400, 0.111
482.500, 0.110
482.600, 0.102
482.700, 0.098
482.800, 0.097
482.900, 0.093
483.000, 0.086
483.100, 0.105
483.200, 0.112
483.300, 0.107
483.400, 0.106
483.500, 0.096
483.600, 0.097
483.700, 0.092
483.800, 0.095
483.900, 0.110
484.000, 0.094
484.100, 0.094
484.200, 0.083
484.300, 0.093
484.400, 0.095
484.500, 0.091
484.600, 0.086
484.700, 0.086
484.800, 0.085
484.900, 0.094
485.000, 0.101
485.100, 0.089
485.200, 0.087
485.300, 0.102
485.400, 0.088
485.500, 0.093
485.600, 0.085
485.700, 0.078
485.800, 0.082
485.900, 0.083
486.000, 0.091
486.100, 0.090
486.200, 0.088
486.300, 0.090
486.400, 0.090
486.500, 0.085
486.600, 0.083
486.700, 0.085
486.800, 0.095
486.900, 0.087
487.000, 0.078
487.100, 0.083
487.200, 0.078
487.300, 0.078
487.400, 0.085
487.500, 0.080
487.600, 0.091
487.700, 0.090
487.800, 0.088
487.900, 0.093
488.000, 0.094
488.100, 0.089
488.200, 0.084
488.300, 0.088
488.400, 0.087
488.500, 0.085
488.600, 0.085
488.700, 0.086
488.800, 0.085
488.900, 0.084
489.000, 0.086
489.100, 0.082
489.200, 0.087
489.300, 0.087
489.400, 0.082
489.500, 0.085
489.600, 0.088
489.700, 0.092
489.800, 0.091
489.900, 0.081
490.000, 0.088
490.100, 0.087
490.200, 0.088
490.300, 0.087
490.400, 0.076
490.500, 0.091
490.600, 0.095
490.700, 0.081
490.800, 0.083
490.900, 0.084
491.000, 0.093
491.100, 0.089
491.200, 0.089
491.300, 0.088
491.400, 0.088
491.500, 0.089
491.600, 0.089
491.700, 0.090
491.800, 0.091
491.900, 0.091
492.000, 0.085
492.100, 0.093
492.200, 0.092
492.300, 0.099
492.400, 0.092
492.500, 0.094
492.600, 0.092
492.700, 0.086
492.800, 0.095
492.900, 0.088
493.000, 0.094
493.100, 0.092
493.200, 0.091
493.300, 0.094
493.400, 0.087
493.500, 0.092
493.600, 0.095
493.700, 0.082
493.800, 0.089
493.900, 0.096
494.000, 0.091
494.100, 0.098
494.200, 0.094
494.300, 0.099
494.400, 0.111
494.500, 0.097
494.600, 0.093
494.700, 0.101
494.800, 0.106
494.900, 0.106
495.000, 0.101
495.100, 0.101
495.200, 0.098
495.300, 0.096
495.400, 0.106
495.500, 0.094
495.600, 0.100
495.700, 0.094
495.800, 0.086
495.900, 0.087
496.000, 0.084
496.100, 0.090
496.200, 0.086
496.300, 0.090
496.400, 0.084
496.500, 0.085
496.600, 0.091
496.700, 0.089
496.800, 0.089
496.900, 0.090
497.000, 0.090
497.100, 0.089
497.200, 0.091
497.300, 0.093
497.400, 0.094
497.500, 0.099
497.600, 0.093
497.700, 0.101
497.800, 0.094
497.900, 0.093
498.000, 0.097
498.100, 0.087
498.200, 0.090
498.300, 0.090
498.400, 0.095
498.500, 0.088
498.600, 0.089
498.700, 0.092
498.800, 0.088
498.900, 0.094
499.000, 0.096
499.100, 0.093
499.200, 0.093
499.300, 0.079
499.400, 0.085
499.500, 0.089
499.600, 0.088
499.700, 0.080
499.800, 0.081
499.900, 0.086
500.000, 0.090
500.100, 0.087
500.200, 0.080
500.300, 0.080
500.400, 0.094
500.500, 0.089
500.600, 0.078
500.700, 0.092
500.800, 0.090
500.900, 0.087
501.000, 0.090
501.100, 0.095
501.200, 0.098
501.300, 0.084
501.400, 0.084
501.500, 0.090
501.600, 0.100
501.700, 0.076
501.800, 0.079
501.900, 0.083
502.000, 0.089
502.100, 0.082
502.200, 0.087
502.300, 0.098
502.400, 0.082
502.500, 0.076
502.600, 0.077
502.700, 0.083
502.800, 0.081
502.900, 0.088
503.000, 0.092
503.100, 0.076
503.200, 0.077
503.300, 0.091
503.400, 0.093
503.500, 0.097
503.600, 0.100
503.700, 0.089
503.800, 0.095
503.900, 0.097
504.000, 0.101
504.100, 0.083
504.200, 0.094
504.300, 0.089
504.400, 0.082
504.500, 0.087
504.600, 0.089
504.700, 0.088
504.800, 0.094
504.900, 0.080
505.000, 0.082
505.100, 0.083
505.200, 0.086
505.300, 0.085
505.400, 0.083
505.500, 0.084
505.600, 0.081
505.700, 0.089
505.800, 0.089
505.900, 0.083
506.000, 0.090
506.100, 0.085
506.200, 0.090
506.300, 0.096
506.400, 0.084
506.500, 0.089
506.600, 0.079
506.700, 0.083
506.800, 0.087
506.900, 0.078
507.000, 0.089
507.100, 0.078
507.200, 0.072
507.300, 0.086
507.400, 0.081
507.500, 0.086
507.600, 0.080
507.700, 0.085
507.800, 0.077
507.900, 0.088
508.000, 0.075
508.100, 0.082
508.200, 0.087
508.300, 0.084
508.400, 0.088
508.500, 0.086
508.600, 0.082
508.700, 0.085
508.800, 0.081
508.900, 0.087
509.000, 0.082
509.100, 0.093
509.200, 0.091
509.300, 0.083
509.400, 0.093
509.500, 0.088
509.600, 0.082
509.700, 0.082
509.800, 0.093
509.900, 0.099
510.000, 0.094
510.100, 0.080
510.200, 0.084
510.300, 0.086
510.400, 0.086
510.500, 0.087
510.600, 0.078
510.700, 0.096
510.800, 0.098
510.900, 0.082
511.000, 0.084
511.100, 0.079
511.200, 0.087
511.300, 0.088
511.400, 0.082
511.500, 0.088
511.600, 0.084
511.700, 0.090
511.800, 0.086
511.900, 0.098
512.000, 0.093
512.100, 0.092
512.200, 0.088
512.300, 0.086
512.400, 0.084
512.500, 0.092
512.600, 0.089
512.700, 0.086
512.800, 0.090
512.900, 0.097
513.000, 0.093
513.100, 0.092
513.200, 0.084
513.300, 0.083
513.400, 0.083
513.500, 0.094
513.600, 0.095
513.700, 0.085
513.800, 0.091
513.900, 0.089
514.000, 0.080
514.100, 0.089
514.200, 0.094
514.300, 0.086
514.400, 0.093
514.500, 0.087
514.600, 0.092
514.700, 0.089
514.800, 0.084
514.900, 0.093
515.000, 0.085
515.100, 0.083
515.200, 0.083
515.300, 0.080
515.400, 0.081
515.500, 0.093
515.600, 0.088
515.700, 0.086
515.800, 0.093
515.900, 0.079
516.000, 0.084
516.100, 0.086
516.200, 0.081
516.300, 0.081
516.400, 0.081
516.500, 0.082
516.600, 0.081
516.700, 0.085
516.800, 0.086
516.900, 0.077
517.000, 0.078
517.100, 0.085
517.200, 0.088
517.300, 0.084
517.400, 0.091
517.500, 0.093
517.600, 0.086
517.700, 0.095
517.800, 0.081
517.900, 0.086
518.000, 0.092
518.100, 0.100
518.200, 0.092
518.300, 0.089
518.400, 0.088
518.500, 0.098
518.600, 0.087
518.700, 0.093
518.800, 0.096
518.900, 0.092
519.000, 0.087
519.100, 0.091
519.200, 0.088
519.300, 0.087
519.400, 0.072
519.500, 0.077
519.600, 0.088
519.700, 0.080
519.800, 0.090
519.900, 0.080
520.000, 0.085
520.100, 0.093
520.200, 0.086
520.300, 0.086
520.400, 0.089
520.500, 0.089
520.600, 0.096
520.700, 0.098
520.800, 0.096
520.900, 0.105
521.000, 0.087
521.100, 0.084
521.200, 0.090
521.300, 0.089
521.400, 0.087
521.500, 0.083
521.600, 0.080
521.700, 0.089
521.800, 0.095
521.900, 0.101
522.000, 0.094
522.100, 0.091
522.200, 0.087
522.300, 0.094
522.400, 0.102
522.500, 0.088
522.600, 0.093
522.700, 0.095
522.800, 0.098
522.900, 0.085
523.000, 0.091
523.100, 0.088
523.200, 0.096
523.300, 0.094
523.400, 0.108
523.500, 0.095
523.600, 0.096
523.700, 0.093
523.800, 0.092
523.900, 0.092
524.000, 0.084
524.100, 0.101
524.200, 0.106
524.300, 0.097
524.400, 0.097
524.500, 0.092
524.600, 0.091
524.700, 0.092
524.800, 0.092
524.900, 0.091
525.000, 0.098
525.100, 0.093
525.200, 0.095
525.300, 0.092
525.400, 0.086
525.500, 0.091
525.600, 0.090
525.700, 0.086
525.800, 0.088
525.900, 0.092
526.000, 0.100
526.100, 0.088
526.200, 0.090
526.300, 0.099
526.400, 0.085
526.500, 0.098
526.600, 0.079
526.700, 0.093
526.800, 0.097
526.900, 0.089
527.000, 0.096
527.100, 0.094
527.200, 0.086
527.300, 0.092
527.400, 0.096
527.500, 0.092
527.600, 0.092
527.700, 0.095
527.800, 0.087
527.900, 0.090
528.000, 0.090
528.100, 0.090
528.200, 0.091
528.300, 0.089
528.400, 0.091
528.500, 0.086
528.600, 0.090
528.700, 0.097
528.800, 0.087
528.900, 0.094
529.000, 0.089
529.100, 0.082
529.200, 0.088
529.300, 0.094
529.400, 0.095
529.500, 0.090
529.600, 0.087
529.700, 0.091
529.800, 0.088
529.900, 0.090
530.000, 0.090
530.100, 0.086
530.200, 0.089
530.300, 0.086
530.400, 0.081
530.500, 0.088
530.600, 0.095
530.700, 0.085
530.800, 0.089
530.900, 0.090
531.000, 0.092
531.100, 0.096
531.200, 0.088
531.300, 0.088
531.400, 0.079
531.500, 0.079
531.600, 0.082
531.700, 0.091
531.800, 0.089
531.900, 0.091
532.000, 0.093
532.100, 0.094
532.200, 0.093
532.300, 0.096
532.400, 0.084
532.500, 0.092
532.600, 0.088
532.700, 0.085
532.800, 0.083
532.900, 0.083
533.000, 0.076
533.100, 0.084
533.200, 0.086
533.300, 0.084
533.400, 0.092
533.500, 0.083
533.600, 0.083
533.700, 0.083
533.800, 0.084
533.900, 0.086
534.000, 0.095
534.100, 0.083
534.200, 0.084
534.300, 0.088
534.400, 0.077
534.500, 0.085
534.600, 0.083
534.700, 0.083
534.800, 0.093
534.900, 0.088
535.000, 0.080
535.100, 0.080
535.200, 0.077
535.300, 0.082
535.400, 0.081
535.500, 0.088
535.600, 0.088
535.700, 0.085
535.800, 0.084
535.900, 0.083
536.000, 0.080
536.100, 0.082
536.200, 0.089
536.300, 0.082
536.400, 0.076
536.500, 0.081
536.600, 0.084
536.700, 0.094
536.800, 0.081
536.900, 0.081
537.000, 0.084
537.100, 0.079
537.200, 0.086
537.300, 0.081
537.400, 0.094
537.500, 0.085
537.600, 0.073
537.700, 0.084
537.800, 0.084
537.900, 0.092
538.000, 0.085
538.100, 0.077
538.200, 0.087
538.300, 0.085
538.400, 0.087
538.500, 0.083
538.600, 0.090
538.700, 0.095
538.800, 0.091
538.900, 0.087
539.000, 0.094
539.100, 0.088
539.200, 0.095
539.300, 0.099
539.400, 0.080
539.500, 0.082
539.600, 0.087
539.700, 0.085
539.800, 0.079
539.900, 0.083
540.000, 0.096
540.100, 0.087
540.200, 0.087
540.300, 0.090
540.400, 0.079
540.500, 0.087
540.600, 0.087
540.700, 0.096
540.800, 0.099
540.900, 0.098
541.000, 0.095
541.100, 0.102
541.200, 0.089
541.300, 0.093
541.400, 0.087
541.500, 0.088
541.600, 0.092
541.700, 0.096
541.800, 0.091
541.900, 0.085
542.000, 0.086
542.100, 0.074
542.200, 0.083
542.300, 0.082
542.400, 0.099
542.500, 0.090
542.600, 0.085
542.700, 0.086
542.800, 0.079
542.900, 0.081
543.000, 0.082
543.100, 0.085
543.200, 0.088
543.300, 0.083
543.400, 0.088
543.500, 0.094
543.600, 0.096
543.700, 0.098
543.800, 0.089
543.900, 0.092
544.000, 0.083
544.100, 0.080
544.200, 0.085
544.300, 0.083
544.400, 0.084
544.500, 0.084
544.600, 0.084
544.700, 0.094
544.800, 0.095
544.900, 0.090
545.000, 0.082
545.100, 0.080
545.200, 0.083
545.300, 0.079
545.400, 0.077
545.500, 0.080
545.600, 0.088
545.700, 0.087
545.800, 0.078
545.900, 0.084
546.000, 0.085
546.100, 0.088
546.200, 0.087
546.300, 0.077
546.400, 0.091
546.500, 0.082
546.600, 0.086
546.700, 0.077
546.800, 0.084
546.900, 0.091
547.000, 0.081
547.100, 0.078
547.200, 0.074
547.300, 0.073
547.400, 0.088
547.500, 0.085
547.600, 0.084
547.700, 0.083
547.800, 0.081
547.900, 0.080
548.000, 0.078
548.100, 0.081
548.200, 0.082
548.300, 0.088
548.400, 0.095
548.500, 0.089
548.600, 0.080
548.700, 0.086
548.800, 0.089
548.900, 0.083
549.000, 0.088
549.100, 0.083
549.200, 0.083
549.300, 0.078
549.400, 0.082
549.500, 0.080
549.600, 0.080
549.700, 0.073
549.800, 0.092
549.900, 0.080
550.000, 0.091
550.100, 0.084
550.200, 0.083
550.300, 0.086
550.400, 0.078
550.500, 0.083
550.600, 0.094
550.700, 0.087
550.800, 0.092
550.900, 0.096
551.000, 0.088
551.100, 0.086
551.200, 0.085
551.300, 0.085
551.400, 0.080
551.500, 0.095
551.600, 0.088
551.700, 0.087
551.800, 0.091
551.900, 0.089
552.000, 0.089
552.100, 0.089
552.200, 0.088
552.300, 0.080
552.400, 0.083
552.500, 0.077
552.600, 0.079
552.700, 0.080
552.800, 0.083
552.900, 0.088
553.000, 0.083
553.100, 0.077
553.200, 0.089
553.300, 0.080
553.400, 0.080
553.500, 0.081
553.600, 0.082
553.700, 0.089
553.800, 0.092
553.900, 0.091
554.000, 0.091
554.100, 0.081
554.200, 0.094
554.300, 0.087
554.400, 0.084
554.500, 0.087
554.600, 0.081
554.700, 0.086
554.800, 0.094
554.900, 0.088
555.000, 0.096
555.100, 0.090
555.200, 0.079
555.300, 0.089
555.400, 0.087
555.500, 0.091
555.600, 0.087
555.700, 0.089
555.800, 0.087
555.900, 0.090
556.000, 0.086
556.100, 0.082
556.200, 0.082
556.300, 0.087
556.400, 0.082
556.500, 0.097
556.600, 0.081
556.700, 0.087
556.800, 0.088
556.900, 0.080
557.000, 0.077
557.100, 0.077
557.200, 0.081
557.300, 0.080
557.400, 0.088
557.500, 0.085
557.600, 0.078
557.700, 0.087
557.800, 0.088
557.900, 0.075
558.000, 0.081
558.100, 0.075
558.200, 0.093
558.300, 0.088
558.400, 0.089
558.500, 0.087
558.600, 0.077
558.700, 0.084
558.800, 0.085
558.900, 0.082
559.000, 0.088
559.100, 0.084
559.200, 0.093
559.300, 0.081
559.400, 0.090
559.500, 0.085
559.600, 0.088
559.700, 0.081
559.800, 0.094
559.900, 0.084
560.000, 0.093
560.100, 0.092
560.200, 0.081
560.300, 0.079
560.400, 0.081
560.500, 0.083
560.600, 0.089
560.700, 0.092
560.800, 0.093
560.900, 0.107
561.000, 0.086
561.100, 0.099
561.200, 0.097
561.300, 0.085
561.400, 0.091
561.500, 0.093
561.600, 0.089
561.700, 0.084
561.800, 0.084
561.900, 0.092
562.000, 0.085
562.100, 0.080
562.200, 0.083
562.300, 0.088
562.400, 0.085
562.500, 0.086
562.600, 0.094
562.700, 0.089
562.800, 0.084
562.900, 0.090
563.000, 0.087
563.100, 0.085
563.200, 0.090
563.300, 0.093
563.400, 0.091
563.500, 0.091
563.600, 0.092
563.700, 0.089
563.800, 0.102
563.900, 0.086
564.000, 0.100
564.100, 0.090
564.200, 0.086
564.300, 0.096
564.400, 0.086
564.500, 0.095
564.600, 0.095
564.700, 0.092
564.800, 0.084
564.900, 0.088
565.000, 0.090
565.100, 0.090
565.200, 0.093
565.300, 0.089
565.400, 0.089
565.500, 0.093
565.600, 0.106
565.700, 0.102
565.800, 0.083
565.900, 0.091
566.000, 0.092
566.100, 0.094
566.200, 0.089
566.300, 0.085
566.400, 0.088
566.500, 0.077
566.600, 0.083
566.700, 0.091
566.800, 0.082
566.900, 0.091
567.000, 0.100
567.100, 0.094
567.200, 0.091
567.300, 0.083
567.400, 0.099
567.500, 0.089
567.600, 0.089
567.700, 0.094
567.800, 0.087
567.900, 0.103
568.000, 0.088
568.100, 0.092
568.200, 0.101
568.300, 0.099
568.400, 0.111
568.500, 0.097
568.600, 0.088
568.700, 0.093
568.800, 0.087
568.900, 0.092
569.000, 0.097
569.100, 0.095
569.200, 0.085
569.300, 0.085
569.400, 0.088
569.500, 0.089
569.600, 0.095
569.700, 0.093
569.800, 0.092
569.900, 0.087
570.000, 0.089
570.100, 0.089
570.200, 0.091
570.300, 0.082
570.400, 0.089
570.500, 0.078
570.600, 0.090
570.700, 0.091
570.800, 0.092
570.900, 0.102
571.000, 0.086
571.100, 0.087
571.200, 0.090
571.300, 0.097
571.400, 0.106
571.500, 0.091
571.600, 0.093
571.700, 0.108
571.800, 0.105
571.900, 0.098
572.000, 0.092
572.100, 0.089
572.200, 0.099
572.300, 0.101
572.400, 0.096
572.500, 0.102
572.600, 0.096
572.700, 0.101
572.800, 0.101
572.900, 0.097
573.000, 0.103
573.100, 0.092
573.200, 0.100
573.300, 0.095
573.400, 0.096
573.500, 0.090
573.600, 0.083
573.700, 0.096
573.800, 0.088
573.900, 0.090
574.000, 0.086
574.100, 0.078
574.200, 0.091
574.300, 0.080
574.400, 0.091
574.500, 0.089
574.600, 0.093
574.700, 0.086
574.800, 0.093
574.900, 0.084
575.000, 0.091
575.100, 0.086
575.200, 0.081
575.300, 0.079
575.400, 0.086
575.500, 0.084
575.600, 0.091
575.700, 0.094
575.800, 0.085
575.900, 0.092
576.000, 0.088
576.100, 0.092
576.200, 0.083
576.300, 0.085
576.400, 0.091
576.500, 0.088
576.600, 0.093
576.700, 0.088
576.800, 0.096
576.900, 0.093
577.000, 0.089
577.100, 0.107
577.200, 0.102
577.300, 0.096
577.400, 0.099
577.500, 0.088
577.600, 0.080
577.700, 0.090
577.800, 0.095
577.900, 0.089
578.000, 0.088
578.100, 0.090
578.200, 0.086
578.300, 0.087
578.400, 0.088
578.500, 0.088
578.600, 0.095
578.700, 0.090
578.800, 0.093
578.900, 0.090
579.000, 0.085
579.100, 0.094
579.200, 0.097
579.300, 0.097
579.400, 0.089
579.500, 0.093
579.600, 0.093
579.700, 0.095
579.800, 0.109
579.900, 0.089
580.000, 0.080
580.100, 0.082
580.200, 0.099
580.300, 0.088
580.400, 0.093
580.500, 0.090
580.600, 0.091
580.700, 0.088
580.800, 0.092
580.900, 0.080
581.000, 0.091
581.100, 0.091
581.200, 0.099
581.300, 0.103
581.400, 0.091
581.500, 0.096
581.600, 0.084
581.700, 0.078
581.800, 0.086
581.900, 0.080
582.000, 0.085
582.100, 0.079
582.200, 0.086
582.300, 0.094
582.400, 0.087
582.500, 0.089
582.600, 0.086
582.700, 0.091
582.800, 0.092
582.900, 0.093
583.000, 0.101
583.100, 0.097
583.200, 0.079
583.300, 0.082
583.400, 0.090
583.500, 0.094
583.600, 0.090
583.700, 0.087
583.800, 0.089
583.900, 0.093
584.000, 0.089
584.100, 0.088
584.200, 0.082
584.300, 0.098
584.400, 0.094
584.500, 0.093
584.600, 0.089
584.700, 0.093
584.800, 0.079
584.900, 0.089
585.000, 0.089
585.100, 0.084
585.200, 0.087
585.300, 0.107
585.400, 0.107
585.500, 0.093
585.600, 0.103
585.700, 0.105
585.800, 0.098
585.900, 0.096
586.000, 0.082
586.100, 0.094
586.200, 0.091
586.300, 0.085
586.400, 0.089
586.500, 0.082
586.600, 0.085
586.700, 0.088
586.800, 0.088
586.900, 0.083
587.000, 0.086
587.100, 0.087
587.200, 0.089
587.300, 0.082
587.400, 0.082
587.500, 0.080
587.600, 0.086
587.700, 0.087
587.800, 0.096
587.900, 0.096
588.000, 0.103
588.100, 0.105
588.200, 0.100
588.300, 0.103
588.400, 0.089
588.500, 0.088
588.600, 0.091
588.700, 0.093
588.800, 0.079
588.900, 0.087
589.000, 0.086
589.100, 0.084
589.200, 0.091
589.300, 0.083
589.400, 0.088
589.500, 0.095
589.600, 0.096
589.700, 0.087
589.800, 0.083
589.900, 0.083
590.000, 0.086
590.100, 0.098
590.200, 0.090
590.300, 0.087
590.400, 0.094
590.500, 0.092
590.600, 0.091
590.700, 0.095
590.800, 0.100
590.900, 0.092
591.000, 0.091
591.100, 0.093
591.200, 0.095
591.300, 0.095
591.400, 0.094
591.500, 0.090
591.600, 0.097
591.700, 0.093
591.800, 0.097
591.900, 0.084
592.000, 0.110
592.100, 0.098
592.200, 0.095
592.300, 0.083
592.400, 0.105
592.500, 0.098
592.600, 0.093
592.700, 0.092
592.800, 0.090
592.900, 0.089
593.000, 0.089
593.100, 0.088
593.200, 0.079
593.300, 0.086
593.400, 0.096
593.500, 0.101
593.600, 0.092
593.700, 0.099
593.800, 0.097
593.900, 0.098
594.000, 0.082
594.100, 0.096
594.200, 0.098
594.300, 0.094
594.400, 0.098
594.500, 0.090
594.600, 0.097
594.700, 0.094
594.800, 0.090
594.900, 0.082
595.000, 0.096
595.100, 0.075
595.200, 0.081
595.300, 0.093
595.400, 0.085
595.500, 0.087
595.600, 0.092
595.700, 0.083
595.800, 0.091
595.900, 0.090
596.000, 0.087
596.100, 0.096
596.200, 0.093
596.300, 0.099
596.400, 0.096
596.500, 0.101
596.600, 0.090
596.700, 0.092
596.800, 0.080
596.900, 0.074
597.000, 0.068
597.100, 0.072
597.200, 0.069
597.300, 0.093
597.400, 0.095
597.500, 0.086
597.600, 0.091
597.700, 0.100
597.800, 0.093
597.900, 0.095
598.000, 0.091
598.100, 0.102
598.200, 0.087
598.300, 0.095
598.400, 0.100
598.500, 0.084
598.600, 0.082
598.700, 0.089
598.800, 0.088
598.900, 0.089
599.000, 0.085
599.100, 0.079
599.200, 0.104
599.300, 0.092
599.400, 0.096
599.500, 0.093
599.600, 0.091
599.700, 0.083
599.800, 0.098
599.900, 0.094
600.000, 0.089
600.100, 0.095
600.200, 0.095
600.300, 0.079
600.400, 0.090
600.500, 0.091
600.600, 0.082
600.700, 0.102
600.800, 0.096
600.900, 0.101
601.000, 0.093
601.100, 0.099
601.200, 0.089
601.300, 0.096
601.400, 0.097
601.500, 0.081
601.600, 0.092
601.700, 0.104
601.800, 0.090
601.900, 0.090
602.000, 0.094
602.100, 0.101
602.200, 0.091
602.300, 0.100
602.400, 0.100
602.500, 0.097
602.600, 0.096
602.700, 0.094
602.800, 0.113
602.900, 0.112
603.000, 0.096
603.100, 0.094
603.200, 0.093
603.300, 0.094
603.400, 0.080
603.500, 0.085
603.600, 0.086
603.700, 0.092
603.800, 0.090
603.900, 0.084
604.000, 0.086
604.100, 0.082
604.200, 0.091
604.300, 0.083
604.400, 0.084
604.500, 0.092
604.600, 0.085
604.700, 0.079
604.800, 0.088
604.900, 0.080
605.000, 0.078
605.100, 0.087
605.200, 0.085
605.300, 0.076
605.400, 0.080
605.500, 0.081
605.600, 0.084
605.700, 0.099
605.800, 0.093
605.900, 0.080
606.000, 0.088
606.100, 0.081
606.200, 0.092
606.300, 0.096
606.400, 0.087
606.500, 0.079
606.600, 0.083
606.700, 0.089
606.800, 0.095
606.900, 0.078
607.000, 0.075
607.100, 0.071
607.200, 0.076
607.300, 0.080
607.400, 0.094
607.500, 0.093
607.600, 0.093
607.700, 0.085
607.800, 0.086
607.900, 0.083
608.000, 0.085
608.100, 0.078
608.200, 0.081
608.300, 0.088
608.400, 0.085
608.500, 0.083
608.600, 0.086
608.700, 0.081
608.800, 0.082
608.900, 0.085
609.000, 0.085
609.100, 0.090
609.200, 0.086
609.300, 0.084
609.400, 0.075
609.500, 0.085
609.600, 0.073
609.700, 0.072
609.800, 0.072
609.900, 0.092
610.000, 0.085
610.100, 0.100
610.200, 0.100
610.300, 0.092
610.400, 0.088
610.500, 0.083
610.600, 0.085
610.700, 0.092
610.800, 0.099
610.900, 0.090
611.000, 0.102
611.100, 0.098
611.200, 0.109
611.300, 0.102
611.400, 0.095
611.500, 0.089
611.600, 0.081
611.700, 0.094
611.800, 0.083
611.900, 0.084
612.000, 0.092
612.100, 0.094
612.200, 0.094
612.300, 0.091
612.400, 0.084
612.500, 0.082
612.600, 0.083
612.700, 0.093
612.800, 0.085
612.900, 0.099
613.000, 0.086
613.100, 0.096
613.200, 0.086
613.300, 0.087
613.400, 0.091
613.500, 0.086
613.600, 0.088
613.700, 0.087
613.800, 0.097
613.900, 0.092
614.000, 0.096
614.100, 0.105
614.200, 0.098
614.300, 0.089
614.400, 0.088
614.500, 0.093
614.600, 0.089
614.700, 0.089
614.800, 0.099
614.900, 0.081
615.000, 0.087
615.100, 0.087
615.200, 0.085
615.300, 0.091
615.400, 0.092
615.500, 0.098
615.600, 0.112
615.700, 0.102
615.800, 0.106
615.900, 0.097
616.000, 0.094
616.100, 0.104
616.200, 0.106
616.300, 0.102
616.400, 0.092
616.500, 0.087
616.600, 0.088
616.700, 0.092
616.800, 0.090
616.900, 0.089
617.000, 0.098
617.100, 0.100
617.200, 0.093
617.300, 0.091
617.400, 0.088
617.500, 0.094
617.600, 0.095
617.700, 0.093
617.800, 0.089
617.900, 0.100
618.000, 0.091
618.100, 0.092
618.200, 0.092
618.300, 0.093
618.400, 0.083
618.500, 0.079
618.600, 0.099
618.700, 0.081
618.800, 0.081
618.900, 0.095
619.000, 0.092
619.100, 0.090
619.200, 0.093
619.300, 0.092
619.400, 0.085
619.500, 0.087
619.600, 0.088
619.700, 0.102
619.800, 0.091
619.900, 0.080
620.000, 0.089
620.100, 0.089
620.200, 0.093
620.300, 0.085
620.400, 0.089
620.500, 0.087
620.600, 0.090
620.700, 0.098
620.800, 0.096
620.900, 0.100
621.000, 0.099
621.100, 0.091
621.200, 0.085
621.300, 0.078
621.400, 0.082
621.500, 0.086
621.600, 0.077
621.700, 0.092
621.800, 0.087
621.900, 0.095
622.000, 0.091
622.100, 0.093
622.200, 0.081
622.300, 0.086
622.400, 0.085
622.500, 0.099
622.600, 0.084
622.700, 0.081
622.800, 0.090
622.900, 0.088
623.000, 0.091
623.100, 0.096
623.200, 0.092
623.300, 0.089
623.400, 0.081
623.500, 0.080
623.600, 0.086
623.700, 0.082
623.800, 0.079
623.900, 0.079
624.000, 0.079
624.100, 0.094
624.200, 0.087
624.300, 0.082
624.400, 0.086
624.500, 0.081
624.600, 0.079
624.700, 0.083
624.800, 0.086
624.900, 0.101
625.000, 0.081
625.100, 0.085
625.200, 0.082
625.300, 0.086
625.400, 0.085
625.500, 0.081
625.600, 0.076
625.700, 0.080
625.800, 0.087
625.900, 0.087
626.000, 0.085
626.100, 0.085
626.200, 0.080
626.300, 0.083
626.400, 0.080
626.500, 0.088
626.600, 0.079
626.700, 0.085
626.800, 0.077
626.900, 0.080
627.000, 0.077
627.100, 0.086
627.200, 0.087
627.300, 0.080
627.400, 0.078
627.500, 0.086
627.600, 0.092
627.700, 0.085
627.800, 0.084
627.900, 0.075
628.000, 0.081
628.100, 0.091
628.200, 0.078
628.300, 0.080
628.400, 0.083
628.500, 0.078
628.600, 0.086
628.700, 0.080
628.800, 0.088
628.900, 0.087
629.000, 0.080
629.100, 0.085
629.200, 0.086
629.300, 0.086
629.400, 0.077
629.500, 0.088
629.600, 0.102
629.700, 0.083
629.800, 0.082
629.900, 0.096
630.000, 0.079
630.100, 0.083
630.200, 0.082
630.300, 0.074
630.400, 0.076
630.500, 0.077
630.600, 0.084
630.700, 0.083
630.800, 0.088
630.900, 0.083
631.000, 0.083
631.100, 0.086
631.200, 0.085
631.300, 0.093
631.400, 0.092
631.500, 0.090
631.600, 0.090
631.700, 0.080
631.800, 0.095
631.900, 0.083
632.000, 0.093
632.100, 0.080
632.200, 0.095
632.300, 0.091
632.400, 0.085
632.500, 0.083
632.600, 0.085
632.700, 0.077
632.800, 0.084
632.900, 0.095
633.000, 0.090
633.100, 0.078
633.200, 0.081
633.300, 0.088
633.400, 0.089
633.500, 0.090
633.600, 0.080
633.700, 0.081
633.800, 0.080
633.900, 0.084
634.000, 0.080
634.100, 0.084
634.200, 0.076
634.300, 0.083
634.400, 0.079
634.500, 0.088
634.600, 0.092
634.700, 0.090
634.800, 0.088
634.900, 0.085
635.000, 0.086
635.100, 0.086
635.200, 0.094
635.300, 0.084
635.400, 0.088
635.500, 0.081
635.600, 0.082
635.700, 0.086
635.800, 0.085
635.900, 0.083
636.000, 0.087
636.100, 0.080
636.200, 0.086
636.300, 0.089
636.400, 0.085
636.500, 0.081
636.600, 0.088
636.700, 0.087
636.800, 0.083
636.900, 0.088
637.000, 0.085
637.100, 0.080
637.200, 0.086
637.300, 0.076
637.400, 0.079
637.500, 0.090
637.600, 0.082
637.700, 0.068
637.800, 0.073
637.900, 0.082
638.000, 0.075
638.100, 0.087
638.200, 0.092
638.300, 0.092
638.400, 0.091
638.500, 0.087
638.600, 0.088
638.700, 0.091
638.800, 0.095
638.900, 0.097
639.000, 0.093
639.100, 0.099
639.200, 0.085
639.300, 0.088
639.400, 0.090
639.500, 0.090
639.600, 0.094
639.700, 0.077
639.800, 0.099
639.900, 0.093
640.000, 0.090
640.100, 0.091
640.200, 0.103
640.300, 0.086
640.400, 0.083
640.500, 0.087
640.600, 0.096
640.700, 0.099
640.800, 0.075
640.900, 0.079
641.000, 0.089
641.100, 0.093
641.200, 0.093
641.300, 0.091
641.400, 0.085
641.500, 0.089
641.600, 0.089
641.700, 0.092
641.800, 0.081
641.900, 0.088
642.000, 0.092
642.100, 0.077
642.200, 0.083
642.300, 0.083
642.400, 0.084
642.500, 0.093
642.600, 0.081
642.700, 0.101
642.800, 0.090
642.900, 0.086
643.000, 0.080
643.100, 0.077
643.200, 0.087
643.300, 0.073
643.400, 0.079
643.500, 0.074
643.600, 0.067
643.700, 0.072
643.800, 0.075
643.900, 0.090
644.000, 0.082
644.100, 0.086
644.200, 0.094
644.300, 0.086
644.400, 0.086
644.500, 0.085
644.600, 0.097
644.700, 0.085
644.800, 0.080
644.900, 0.091
645.000, 0.097
645.100, 0.085
645.200, 0.088
645.300, 0.094
645.400, 0.081
645.500, 0.076
645.600, 0.082
645.700, 0.083
645.800, 0.079
645.900, 0.081
646.000, 0.085
646.100, 0.076
646.200, 0.083
646.300, 0.079
646.400, 0.079
646.500, 0.085
646.600, 0.081
646.700, 0.081
646.800, 0.072
646.900, 0.076
647.000, 0.082
647.100, 0.085
647.200, 0.080
647.300, 0.077
647.400, 0.078
647.500, 0.077
647.600, 0.086
647.700, 0.087
647.800, 0.089
647.900, 0.082
648.000, 0.075
648.100, 0.080
648.200, 0.076
648.300, 0.081
648.400, 0.072
648.500, 0.074
648.600, 0.089
648.700, 0.075
648.800, 0.077
648.900, 0.085
649.000, 0.080
649.100, 0.084
649.200, 0.080
649.300, 0.089
649.400, 0.090
649.500, 0.084
649.600, 0.083
649.700, 0.081
649.800, 0.087
649.900, 0.073
650.000, 0.079
650.100, 0.083
650.200, 0.084
650.300, 0.078
650.400, 0.081
650.500, 0.078
650.600, 0.082
650.700, 0.086
650.800, 0.098
650.900, 0.096
651.000, 0.085
651.100, 0.086
651.200, 0.077
651.300, 0.074
651.400, 0.079
651.500, 0.073
651.600, 0.070
651.700, 0.075
651.800, 0.073
651.900, 0.089
652.000, 0.082
652.100, 0.086
652.200, 0.081
652.300, 0.087
652.400, 0.089
652.500, 0.090
652.600, 0.087
652.700, 0.091
652.800, 0.080
652.900, 0.078
653.000, 0.087
653.100, 0.086
653.200, 0.087
653.300, 0.083
653.400, 0.082
653.500, 0.087
653.600, 0.089
653.700, 0.091
653.800, 0.087
653.900, 0.083
654.000, 0.074
654.100, 0.076
654.200, 0.079
654.300, 0.084
654.400, 0.079
654.500, 0.084
654.600, 0.076
654.700, 0.083
654.800, 0.088
654.900, 0.090
655.000, 0.090
655.100, 0.087
655.200, 0.096
655.300, 0.108
655.400, 0.101
655.500, 0.101
655.600, 0.101
655.700, 0.100
655.800, 0.095
655.900, 0.085
656.000, 0.079
656.100, 0.086
656.200, 0.090
656.300, 0.086
656.400, 0.098
656.500, 0.092
656.600, 0.094
656.700, 0.092
656.800, 0.086
656.900, 0.105
657.000, 0.098
657.100, 0.104
657.200, 0.106
657.300, 0.106
657.400, 0.100
657.500, 0.093
657.600, 0.092
657.700, 0.094
657.800, 0.091
657.900, 0.096
658.000, 0.095
658.100, 0.088
658.200, 0.104
658.300, 0.090
658.400, 0.111
658.500, 0.108
658.600, 0.094
658.700, 0.088
658.800, 0.091
658.900, 0.087
659.000, 0.085
659.100, 0.076
659.200, 0.087
659.300, 0.091
659.400, 0.076
659.500, 0.088
659.600, 0.090
659.700, 0.082
659.800, 0.092
659.900, 0.093
660.000, 0.087
660.100, 0.103
660.200, 0.090
660.300, 0.091
660.400, 0.096
660.500, 0.085
660.600, 0.087
660.700, 0.083
660.800, 0.086
660.900, 0.095
661.000, 0.085
661.100, 0.094
661.200, 0.083
661.300, 0.086
661.400, 0.079
661.500, 0.088
661.600, 0.082
661.700, 0.098
661.800, 0.089
661.900, 0.094
662.000, 0.097
662.100, 0.098
662.200, 0.081
662.300, 0.084
662.400, 0.086
662.500, 0.083
662.600, 0.081
662.700, 0.087
662.800, 0.086
662.900, 0.090
663.000, 0.092
663.100, 0.081
663.200, 0.078
663.300, 0.088
663.400, 0.100
663.500, 0.091
663.600, 0.092
663.700, 0.082
663.800, 0.088
663.900, 0.095
664.000, 0.088
664.100, 0.097
664.200, 0.103
664.300, 0.107
664.400, 0.098
664.500, 0.100
664.600, 0.088
664.700, 0.097
664.800, 0.094
664.900, 0.092
665.000, 0.102
665.100, 0.096
665.200, 0.094
665.300, 0.110
665.400, 0.092
665.500, 0.087
665.600, 0.083
665.700, 0.087
665.800, 0.093
665.900, 0.089
666.000, 0.091
666.100, 0.091
666.200, 0.082
666.300, 0.094
666.400, 0.093
666.500, 0.085
666.600, 0.089
666.700, 0.088
666.800, 0.090
666.900, 0.089
667.000, 0.083
667.100, 0.089
667.200, 0.080
667.300, 0.087
667.400, 0.094
667.500, 0.084
667.600, 0.085
667.700, 0.082
667.800, 0.083
667.900, 0.086
668.000, 0.095
668.100, 0.088
668.200, 0.085
668.300, 0.095
668.400, 0.093
668.500, 0.097
668.600, 0.091
668.700, 0.092
668.800, 0.084
668.900, 0.090
669.000, 0.088
669.100, 0.083
669.200, 0.091
669.300, 0.079
669.400, 0.089
669.500, 0.091
669.600, 0.091
669.700, 0.089
669.800, 0.084
669.900, 0.094
670.000, 0.097
670.100, 0.091
670.200, 0.094
670.300, 0.079
670.400, 0.096
670.500, 0.083
670.600, 0.091
670.700, 0.093
670.800, 0.092
670.900, 0.105
671.000, 0.092
671.100, 0.103
671.200, 0.100
671.300, 0.095
671.400, 0.087
671.500, 0.093
671.600, 0.092
671.700, 0.084
671.800, 0.094
671.900, 0.093
672.000, 0.083
672.100, 0.088
672.200, 0.092
672.300, 0.090
672.400, 0.100
672.500, 0.092
672.600, 0.085
672.700, 0.089
672.800, 0.086
672.900, 0.092
673.000, 0.090
673.100, 0.091
673.200, 0.085
673.300, 0.086
673.400, 0.095
673.500, 0.087
673.600, 0.089
673.700, 0.083
673.800, 0.089
673.900, 0.089
674.000, 0.097
674.100, 0.081
674.200, 0.100
674.300, 0.093
674.400, 0.086
674.500, 0.081
674.600, 0.080
674.700, 0.085
674.800, 0.086
674.900, 0.094
675.000, 0.090
675.100, 0.078
675.200, 0.088
675.300, 0.090
675.400, 0.092
675.500, 0.093
675.600, 0.094
675.700, 0.090
675.800, 0.088
675.900, 0.079
676.000, 0.085
676.100, 0.090
676.200, 0.085
676.300, 0.084
676.400, 0.082
676.500, 0.078
676.600, 0.080
676.700, 0.075
676.800, 0.074
676.900, 0.076
677.000, 0.083
677.100, 0.081
677.200, 0.083
677.300, 0.093
677.400, 0.081
677.500, 0.100
677.600, 0.092
677.700, 0.085
677.800, 0.088
677.900, 0.099
678.000, 0.097
678.100, 0.097
678.200, 0.085
678.300, 0.093
678.400, 0.105
678.500, 0.095
678.600, 0.088
678.700, 0.086
678.800, 0.103
678.900, 0.091
679.000, 0.096
679.100, 0.086
679.200, 0.088
679.300, 0.093
679.400, 0.087
679.500, 0.087
679.600, 0.096
679.700, 0.085
679.800, 0.096
679.900, 0.090
680.000, 0.100
680.100, 0.085
680.200, 0.087
680.300, 0.082
680.400, 0.091
680.500, 0.076
680.600, 0.098
680.700, 0.098
680.800, 0.106
680.900, 0.084
681.000, 0.101
681.100, 0.096
681.200, 0.095
681.300, 0.096
681.400, 0.104
681.500, 0.113
681.600, 0.110
681.700, 0.105
681.800, 0.108
681.900, 0.097
682.000, 0.105
682.100, 0.103
682.200, 0.089
682.300, 0.101
682.400, 0.093
682.500, 0.094
682.600, 0.093
682.700, 0.097
682.800, 0.093
682.900, 0.084
683.000, 0.101
683.100, 0.088
683.200, 0.094
683.300, 0.089
683.400, 0.095
683.500, 0.091
683.600, 0.087
683.700, 0.089
683.800, 0.094
683.900, 0.097
684.000, 0.098
684.100, 0.088
684.200, 0.091
684.300, 0.089
684.400, 0.088
684.500, 0.102
684.600, 0.102
684.700, 0.103
684.800, 0.089
684.900, 0.086
685.000, 0.086
685.100, 0.096
685.200, 0.102
685.300, 0.099
685.400, 0.097
685.500, 0.094
685.600, 0.096
685.700, 0.090
685.800, 0.094
685.900, 0.104
686.000, 0.095
686.100, 0.097
686.200, 0.096
686.300, 0.099
686.400, 0.100
686.500, 0.094
686.600, 0.087
686.700, 0.093
686.800, 0.088
686.900, 0.081
687.000, 0.086
687.100, 0.091
687.200, 0.089
687.300, 0.085
687.400, 0.084
687.500, 0.081
687.600, 0.084
687.700, 0.096
687.800, 0.098
687.900, 0.092
688.000, 0.097
688.100, 0.091
688.200, 0.096
688.300, 0.086
688.400, 0.081
688.500, 0.085
688.600, 0.093
688.700, 0.089
688.800, 0.090
688.900, 0.087
689.000, 0.081
689.100, 0.078
689.200, 0.083
689.300, 0.086
689.400, 0.089
689.500, 0.078
689.600, 0.085
689.700, 0.087
689.800, 0.078
689.900, 0.081
690.000, 0.082
690.100, 0.084
690.200, 0.084
690.300, 0.091
690.400, 0.073
690.500, 0.076
690.600, 0.078
690.700, 0.078
690.800, 0.078
690.900, 0.081
691.000, 0.082
691.100, 0.081
691.200, 0.085
691.300, 0.080
691.400, 0.076
691.500, 0.084
691.600, 0.090
691.700, 0.087
691.800, 0.088
691.900, 0.083
692.000, 0.083
692.100, 0.088
692.200, 0.080
692.300, 0.089
692.400, 0.088
692.500, 0.091
692.600, 0.084
692.700, 0.088
692.800, 0.081
692.900, 0.087
693.000, 0.089
693.100, 0.083
693.200, 0.082
693.300, 0.087
693.400, 0.077
693.500, 0.081
693.600, 0.091
693.700, 0.097
693.800, 0.093
693.900, 0.084
694.000, 0.089
694.100, 0.092
694.200, 0.114
694.300, 0.105
694.400, 0.098
694.500, 0.092
694.600, 0.094
694.700, 0.095
694.800, 0.090
694.900, 0.114
695.000, 0.091
695.100, 0.090
695.200, 0.096
695.300, 0.109
695.400, 0.096
695.500, 0.093
695.600, 0.106
695.700, 0.107
695.800, 0.113
695.900, 0.102
696.000, 0.087
696.100, 0.087
696.200, 0.096
696.300, 0.081
696.400, 0.093
696.500, 0.102
696.600, 0.094
696.700, 0.101
696.800, 0.124
696.900, 0.099
697.000, 0.111
697.100, 0.102
697.200, 0.098
697.300, 0.094
697.400, 0.086
697.500, 0.086
697.600, 0.106
697.700, 0.092
697.800, 0.098
697.900, 0.106
698.000, 0.093
698.100, 0.078
698.200, 0.082
698.300, 0.075
698.400, 0.078
698.500, 0.086
698.600, 0.093
698.700, 0.094
698.800, 0.095
698.900, 0.103
699.000, 0.092
699.100, 0.090
699.200, 0.103
699.300, 0.091
699.400, 0.096
699.500, 0.097
699.600, 0.105
699.700, 0.087
699.800, 0.094
699.900, 0.092
700.000, 0.091
700.100, 0.091
700.200, 0.092
700.300, 0.080
700.400, 0.088
700.500, 0.079
700.600, 0.082
700.700, 0.071
700.800, 0.074
700.900, 0.087
701.000, 0.085
701.100, 0.085
701.200, 0.080
701.300, 0.080
701.400, 0.078
701.500, 0.086
701.600, 0.080
701.700, 0.079
701.800, 0.082
701.900, 0.078
702.000, 0.086
702.100, 0.075
702.200, 0.075
702.300, 0.081
702.400, 0.080
702.500, 0.075
702.600, 0.076
702.700, 0.079
702.800, 0.082
702.900, 0.079
703.000, 0.084
703.100, 0.090
703.200, 0.087
703.300, 0.080
703.400, 0.081
703.500, 0.086
703.600, 0.082
703.700, 0.075
703.800, 0.082
703.900, 0.077
704.000, 0.081
704.100, 0.085
704.200, 0.076
704.300, 0.084
704.400, 0.075
704.500, 0.078
704.600, 0.085
704.700, 0.085
704.800, 0.073
704.900, 0.084
705.000, 0.084
705.100, 0.080
705.200, 0.083
705.300, 0.076
705.400, 0.073
705.500, 0.077
705.600, 0.074
705.700, 0.085
705.800, 0.072
705.900, 0.080
706.000, 0.078
706.100, 0.087
706.200, 0.093
706.300, 0.096
706.400, 0.090
706.500, 0.081
706.600, 0.079
706.700, 0.076
706.800, 0.076
706.900, 0.080
707.000, 0.086
707.100, 0.096
707.200, 0.086
707.300, 0.087
707.400, 0.082
707.500, 0.084
707.600, 0.083
707.700, 0.087
707.800, 0.092
707.900, 0.093
708.000, 0.088
708.100, 0.092
708.200, 0.096
708.300, 0.101
708.400, 0.087
708.500, 0.085
708.600, 0.101
708.700, 0.097
708.800, 0.092
708.900, 0.095
709.000, 0.098
709.100, 0.101
709.200, 0.094
709.300, 0.092
709.400, 0.099
709.500, 0.078
709.600, 0.093
709.700, 0.083
709.800, 0.089
709.900, 0.080
710.000, 0.083
710.100, 0.092
710.200, 0.096
710.300, 0.099
710.400, 0.086
710.500, 0.084
710.600, 0.086
710.700, 0.100
710.800, 0.099
710.900, 0.089
711.000, 0.103
711.100, 0.096
711.200, 0.091
711.300, 0.101
711.400, 0.091
711.500, 0.097
711.600, 0.095
711.700, 0.112
711.800, 0.098
711.900, 0.092
712.000, 0.098
712.100, 0.092
712.200, 0.083
712.300, 0.085
712.400, 0.103
712.500, 0.104
712.600, 0.089
712.700, 0.083
712.800, 0.084
712.900, 0.076
713.000, 0.089
713.100, 0.073
713.200, 0.095
713.300, 0.093
713.400, 0.095
713.500, 0.087
713.600, 0.088
713.700, 0.084
713.800, 0.074
713.900, 0.082
714.000, 0.084
714.100, 0.092
714.200, 0.078
714.300, 0.082
714.400, 0.083
714.500, 0.082
714.600, 0.088
714.700, 0.076
714.800, 0.082
714.900, 0.077
715.000, 0.080
715.100, 0.087
715.200, 0.077
715.300, 0.078
715.400, 0.085
715.500, 0.095
715.600, 0.077
715.700, 0.080
715.800, 0.076
715.900, 0.076
716.000, 0.087
716.100, 0.081
716.200, 0.080
716.300, 0.077
716.400, 0.078
716.500, 0.080
716.600, 0.079
716.700, 0.067
716.800, 0.089
716.900, 0.081
717.000, 0.086
717.100, 0.099
717.200, 0.093
717.300, 0.093
717.400, 0.091
717.500, 0.085
717.600, 0.086
717.700, 0.095
717.800, 0.098
717.900, 0.086
718.000, 0.088
718.100, 0.093
718.200, 0.091
718.300, 0.089
718.400, 0.093
718.500, 0.094
718.600, 0.092
718.700, 0.083
718.800, 0.085
718.900, 0.088
719.000, 0.084
719.100, 0.098
719.200, 0.089
719.300, 0.092
719.400, 0.097
719.500, 0.092
719.600, 0.087
719.700, 0.089
719.800, 0.093
719.900, 0.095
720.000, 0.106
720.100, 0.109
720.200, 0.105
720.300, 0.105
720.400, 0.096
720.500, 0.093
720.600, 0.090
720.700, 0.092
720.800, 0.108
720.900, 0.102
721.000, 0.096
721.100, 0.097
721.200, 0.091
721.300, 0.094
721.400, 0.100
721.500, 0.088
721.600, 0.096
721.700, 0.095
721.800, 0.094
721.900, 0.100
722.000, 0.088
722.100, 0.088
722.200, 0.093
722.300, 0.100
722.400, 0.094
722.500, 0.101
722.600, 0.098
722.700, 0.094
722.800, 0.094
722.900, 0.085
723.000, 0.092
723.100, 0.084
723.200, 0.086
723.300, 0.088
723.400, 0.079
723.500, 0.084
723.600, 0.083
723.700, 0.088
723.800, 0.099
723.900, 0.093
724.000, 0.090
724.100, 0.089
724.200, 0.084
724.300, 0.088
724.400, 0.094
724.500, 0.087
724.600, 0.097
724.700, 0.094
724.800, 0.094
724.900, 0.100
725.000, 0.089
725.100, 0.093
725.200, 0.092
725.300, 0.091
725.400, 0.098
725.500, 0.085
725.600, 0.091
725.700, 0.087
725.800, 0.077
725.900, 0.081
726.000, 0.085
726.100, 0.082
726.200, 0.083
726.300, 0.094
726.400, 0.096
726.500, 0.098
726.600, 0.103
726.700, 0.093
726.800, 0.094
726.900, 0.098
727.000, 0.108
727.100, 0.096
727.200, 0.102
727.300, 0.103
727.400, 0.100
727.500, 0.096
727.600, 0.099
727.700, 0.102
727.800, 0.090
727.900, 0.085
728.000, 0.086
728.100, 0.089
728.200, 0.092
728.300, 0.094
728.400, 0.090
728.500, 0.097
728.600, 0.108
728.700, 0.100
728.800, 0.105
728.900, 0.106
729.000, 0.092
729.100, 0.085
729.200, 0.089
729.300, 0.094
729.400, 0.097
729.500, 0.106
729.600, 0.099
729.700, 0.101
729.800, 0.096
729.900, 0.094
730.000, 0.088
730.100, 0.097
730.200, 0.099
730.300, 0.105
730.400, 0.103
730.500, 0.099
730.600, 0.095
730.700, 0.098
730.800, 0.114
730.900, 0.102
731.000, 0.107
731.100, 0.101
731.200, 0.106
731.300, 0.116
731.400, 0.112
731.500, 0.094
731.600, 0.103
731.700, 0.110
731.800, 0.089
731.900, 0.096
732.000, 0.098
732.100, 0.092
732.200, 0.083
732.300, 0.084
732.400, 0.080
732.500, 0.083
732.600, 0.082
732.700, 0.089
732.800, 0.080
732.900, 0.089
733.000, 0.096
733.100, 0.100
733.200, 0.088
733.300, 0.101
733.400, 0.086
733.500, 0.086
733.600, 0.088
733.700, 0.087
733.800, 0.099
733.900, 0.101
734.000, 0.083
734.100, 0.101
734.200, 0.095
734.300, 0.082
734.400, 0.086
734.500, 0.087
734.600, 0.081
734.700, 0.078
734.800, 0.090
734.900, 0.082
735.000, 0.089
735.100, 0.086
735.200, 0.090
735.300, 0.089
735.400, 0.094
735.500, 0.095
735.600, 0.091
735.700, 0.087
735.800, 0.101
735.900, 0.093
736.000, 0.079
736.100, 0.085
736.200, 0.087
736.300, 0.090
736.400, 0.097
736.500, 0.091
736.600, 0.094
736.700, 0.081
736.800, 0.086
736.900, 0.079
737.000, 0.080
737.100, 0.092
737.200, 0.097
737.300, 0.096
737.400, 0.091
737.500, 0.092
737.600, 0.083
737.700, 0.085
737.800, 0.087
737.900, 0.090
738.000, 0.091
738.100, 0.093
738.200, 0.086
738.300, 0.085
738.400, 0.085
738.500, 0.093
738.600, 0.090
738.700, 0.100
738.800, 0.092
738.900, 0.086
739.000, 0.078
739.100, 0.091
739.200, 0.082
739.300, 0.086
739.400, 0.079
739.500, 0.087
739.600, 0.096
739.700, 0.098
739.800, 0.095
739.900, 0.091
740.000, 0.080
740.100, 0.083
740.200, 0.082
740.300, 0.085
740.400, 0.085
740.500, 0.085
740.600, 0.082
740.700, 0.088
740.800, 0.097
740.900, 0.104
741.000, 0.089
741.100, 0.108
741.200, 0.104
741.300, 0.098
741.400, 0.094
741.500, 0.097
741.600, 0.103
741.700, 0.106
741.800, 0.113
741.900, 0.113
742.000, 0.099
742.100, 0.093
742.200, 0.097
742.300, 0.101
742.400, 0.088
742.500, 0.106
742.600, 0.090
742.700, 0.099
742.800, 0.092
742.900, 0.091
743.000, 0.093
743.100, 0.096
743.200, 0.095
743.300, 0.098
743.400, 0.102
743.500, 0.095
743.600, 0.097
743.700, 0.100
743.800, 0.088
743.900, 0.095
744.000, 0.096
744.100, 0.099
744.200, 0.101
744.300, 0.097
744.400, 0.082
744.500, 0.101
744.600, 0.090
744.700, 0.094
744.800, 0.097
744.900, 0.087
745.000, 0.091
745.100, 0.096
745.200, 0.085
745.300, 0.092
745.400, 0.091
745.500, 0.096
745.600, 0.093
745.700, 0.102
745.800, 0.097
745.900, 0.092
746.000, 0.097
746.100, 0.100
746.200, 0.099
746.300, 0.100
746.400, 0.092
746.500, 0.097
746.600, 0.103
746.700, 0.091
746.800, 0.106
746.900, 0.106
747.000, 0.094
747.100, 0.104
747.200, 0.100
747.300, 0.094
747.400, 0.094
747.500, 0.101
747.600, 0.102
747.700, 0.105
747.800, 0.103
747.900, 0.104
748.000, 0.099
748.100, 0.100
748.200, 0.098
748.300, 0.093
748.400, 0.105
748.500, 0.109
748.600, 0.097
748.700, 0.098
748.800, 0.102
748.900, 0.106
749.000, 0.109
749.100, 0.118
749.200, 0.104
749.300, 0.114
749.400, 0.111
749.500, 0.106
749.600, 0.106
749.700, 0.108
749.800, 0.114
749.900, 0.105
750.000, 0.103
750.100, 0.097
750.200, 0.097
750.300, 0.098
750.400, 0.110
750.500, 0.099
750.600, 0.101
750.700, 0.100
750.800, 0.103
750.900, 0.104
751.000, 0.095
751.100, 0.096
751.200, 0.092
751.300, 0.098
751.400, 0.097
751.500, 0.090
751.600, 0.097
751.700, 0.093
751.800, 0.094
751.900, 0.088
752.000, 0.099
752.100, 0.101
752.200, 0.091
752.300, 0.090
752.400, 0.097
752.500, 0.101
752.600, 0.103
752.700, 0.095
752.800, 0.088
752.900, 0.079
753.000, 0.090
753.100, 0.086
753.200, 0.085
753.300, 0.087
753.400, 0.082
753.500, 0.087
753.600, 0.098
753.700, 0.088
753.800, 0.094
753.900, 0.083
754.000, 0.079
754.100, 0.088
754.200, 0.074
754.300, 0.085
754.400, 0.083
754.500, 0.081
754.600, 0.086
754.700, 0.085
754.800, 0.079
754.900, 0.087
755.000, 0.085
755.100, 0.099
755.200, 0.107
755.300, 0.115
755.400, 0.115
755.500, 0.107
755.600, 0.113
755.700, 0.108
755.800, 0.108
755.900, 0.122
756.000, 0.109
756.100, 0.098
756.200, 0.110
756.300, 0.102
756.400, 0.096
756.500, 0.097
756.600, 0.095
756.700, 0.099
756.800, 0.106
756.900, 0.101
757.000, 0.111
757.100, 0.114
757.200, 0.111
757.300, 0.099
757.400, 0.091
757.500, 0.103
757.600, 0.099
757.700, 0.099
757.800, 0.110
757.900, 0.105
758.000, 0.100
758.100, 0.111
758.200, 0.107
758.300, 0.109
758.400, 0.090
758.500, 0.099
758.600, 0.101
758.700, 0.090
758.800, 0.091
758.900, 0.097
759.000, 0.099
759.100, 0.090
759.200, 0.095
759.300, 0.099
759.400, 0.099
759.500, 0.088
759.600, 0.086
759.700, 0.083
759.800, 0.082
759.900, 0.077
760.000, 0.083
760.100, 0.085
760.200, 0.088
760.300, 0.090
760.400, 0.087
760.500, 0.086
760.600, 0.080
760.700, 0.076
760.800, 0.087
760.900, 0.084
761.000, 0.077
761.100, 0.084
761.200, 0.078
761.300, 0.086
761.400, 0.088
761.500, 0.085
761.600, 0.079
761.700, 0.076
761.800, 0.080
761.900, 0.085
762.000, 0.084
762.100, 0.089
762.200, 0.090
762.300, 0.084
762.400, 0.077
762.500, 0.082
762.600, 0.080
762.700, 0.081
762.800, 0.078
762.900, 0.072
763.000, 0.068
763.100, 0.079
763.200, 0.079
763.300, 0.078
763.400, 0.076
763.500, 0.084
763.600, 0.070
763.700, 0.078
763.800, 0.074
763.900, 0.085
764.000, 0.072
764.100, 0.072
764.200, 0.079
764.300, 0.083
764.400, 0.077
764.500, 0.086
764.600, 0.076
764.700, 0.083
764.800, 0.072
764.900, 0.074
765.000, 0.082
765.100, 0.072
765.200, 0.075
765.300, 0.080
765.400, 0.084
765.500, 0.080
765.600, 0.081
765.700, 0.088
765.800, 0.087
765.900, 0.084
766.000, 0.081
766.100, 0.079
766.200, 0.083
766.300, 0.083
766.400, 0.089
766.500, 0.081
766.600, 0.082
766.700, 0.088
766.800, 0.084
766.900, 0.091
767.000, 0.088
767.100, 0.094
767.200, 0.088
767.300, 0.099
767.400, 0.092
767.500, 0.093
767.600, 0.089
767.700, 0.096
767.800, 0.093
767.900, 0.084
768.000, 0.094
768.100, 0.092
768.200, 0.087
768.300, 0.086
768.400, 0.082
768.500, 0.078
768.600, 0.081
768.700, 0.085
768.800, 0.086
768.900, 0.086
769.000, 0.081
769.100, 0.079
769.200, 0.091
769.300, 0.090
769.400, 0.090
769.500, 0.096
769.600, 0.092
769.700, 0.089
769.800, 0.087
769.900, 0.086
770.000, 0.078
770.100, 0.077
770.200, 0.087
770.300, 0.078
770.400, 0.081
770.500, 0.096
770.600, 0.090
770.700, 0.094
770.800, 0.090
770.900, 0.092
771.000, 0.091
771.100, 0.097
771.200, 0.091
771.300, 0.090
771.400, 0.096
771.500, 0.085
771.600, 0.094
771.700, 0.091
771.800, 0.089
771.900, 0.092
772.000, 0.089
772.100, 0.091
772.200, 0.092
772.300, 0.089
772.400, 0.094
772.500, 0.090
772.600, 0.102
772.700, 0.093
772.800, 0.085
772.900, 0.091
773.000, 0.094
773.100, 0.091
773.200, 0.092
773.300, 0.086
773.400, 0.088
773.500, 0.090
773.600, 0.092
773.700, 0.090
773.800, 0.094
773.900, 0.095
774.000, 0.093
774.100, 0.097
774.200, 0.087
774.300, 0.090
774.400, 0.083
774.500, 0.076
774.600, 0.089
774.700, 0.090
774.800, 0.091
774.900, 0.087
775.000, 0.086
775.100, 0.081
775.200, 0.081
775.300, 0.086
775.400, 0.083
775.500, 0.081
775.600, 0.080
775.700, 0.084
775.800, 0.086
775.900, 0.088
776.000, 0.077
776.100, 0.083
776.200, 0.094
776.300, 0.091
776.400, 0.101
776.500, 0.092
776.600, 0.089
776.700, 0.079
776.800, 0.087
776.900, 0.099
777.000, 0.090
777.100, 0.084
777.200, 0.090
777.300, 0.091
777.400, 0.082
777.500, 0.091
777.600, 0.086
777.700, 0.093
777.800, 0.094
777.900, 0.086
778.000, 0.081
778.100, 0.082
778.200, 0.091
778.300, 0.096
778.400, 0.097
778.500, 0.094
778.600, 0.094
778.700, 0.093
778.800, 0.093
778.900, 0.100
779.000, 0.101
779.100, 0.092
779.200, 0.090
779.300, 0.091
779.400, 0.093
779.500, 0.085
779.600, 0.098
779.700, 0.090
779.800, 0.092
779.900, 0.095
780.000, 0.095
780.100, 0.095
780.200, 0.099
780.300, 0.084
780.400, 0.090
780.500, 0.090
780.600, 0.084
780.700, 0.089
780.800, 0.097
780.900, 0.099
781.000, 0.090
781.100, 0.083
781.200, 0.086
781.300, 0.104
781.400, 0.088
781.500, 0.087
781.600, 0.088
781.700, 0.088
781.800, 0.091
781.900, 0.099
782.000, 0.095
782.100, 0.096
782.200, 0.084
782.300, 0.087
782.400, 0.091
782.500, 0.089
782.600, 0.085
782.700, 0.086
782.800, 0.084
782.900, 0.089
783.000, 0.088
783.100, 0.088
783.200, 0.085
783.300, 0.085
783.400, 0.089
783.500, 0.095
783.600, 0.092
783.700, 0.089
783.800, 0.096
783.900, 0.086
784.000, 0.087
784.100, 0.078
784.200, 0.086
784.300, 0.089
784.400, 0.088
784.500, 0.100
784.600, 0.085
784.700, 0.099
784.800, 0.091
784.900, 0.091
785.000, 0.092
785.100, 0.095
785.200, 0.094
785.300, 0.099
785.400, 0.089
785.500, 0.106
785.600, 0.091
785.700, 0.097
785.800, 0.086
785.900, 0.096
786.000, 0.095
786.100, 0.093
786.200, 0.096
786.300, 0.088
786.400, 0.093
786.500, 0.090
786.600, 0.093
786.700, 0.087
786.800, 0.080
786.900, 0.085
787.000, 0.077
787.100, 0.080
787.200, 0.083
787.300, 0.076
787.400, 0.074
787.500, 0.079
787.600, 0.090
787.700, 0.089
787.800, 0.089
787.900, 0.097
788.000, 0.090
788.100, 0.086
788.200, 0.084
788.300, 0.089
788.400, 0.096
788.500, 0.096
788.600, 0.090
788.700, 0.085
788.800, 0.091
788.900, 0.089
789.000, 0.088
789.100, 0.091
789.200, 0.083
789.300, 0.093
789.400, 0.094
789.500, 0.079
789.600, 0.081
789.700, 0.085
789.800, 0.091
789.900, 0.082
790.000, 0.085
790.100, 0.080
790.200, 0.082
790.300, 0.084
790.400, 0.089
790.500, 0.089
790.600, 0.081
790.700, 0.081
790.800, 0.080
790.900, 0.083
791.000, 0.076
791.100, 0.083
791.200, 0.078
791.300, 0.081
791.400, 0.093
791.500, 0.085
791.600, 0.079
791.700, 0.078
791.800, 0.084
791.900, 0.082
792.000, 0.073
792.100, 0.081
792.200, 0.085
792.300, 0.085
792.400, 0.077
792.500, 0.081
792.600, 0.083
792.700, 0.080
792.800, 0.071
792.900, 0.084
793.000, 0.079
793.100, 0.080
793.200, 0.091
793.300, 0.070
793.400, 0.087
793.500, 0.074
793.600, 0.075
793.700, 0.080
793.800, 0.079
793.900, 0.082
794.000, 0.081
794.100, 0.074
794.200, 0.078
794.300, 0.080
794.400, 0.084
794.500, 0.077
794.600, 0.081
794.700, 0.077
794.800, 0.088
794.900, 0.082
795.000, 0.085
795.100, 0.080
795.200, 0.079
795.300, 0.075
795.400, 0.081
795.500, 0.082
795.600, 0.081
795.700, 0.079
795.800, 0.080
795.900, 0.078
796.000, 0.082
796.100, 0.087
796.200, 0.078
796.300, 0.083
796.400, 0.086
796.500, 0.078
796.600, 0.075
796.700, 0.073
796.800, 0.079
796.900, 0.073
797.000, 0.074
797.100, 0.073
797.200, 0.081
797.300, 0.085
797.400, 0.080
797.500, 0.081
797.600, 0.075
797.700, 0.081
797.800, 0.076
797.900, 0.074
798.000, 0.082
798.100, 0.079
798.200, 0.071
798.300, 0.076
798.400, 0.077
798.500, 0.075
798.600, 0.086
798.700, 0.088
798.800, 0.079
798.900, 0.082
799.000, 0.076
799.100, 0.078
799.200, 0.085
799.300, 0.077
799.400, 0.075
799.500, 0.081
799.600, 0.088
799.700, 0.085
799.800, 0.082
799.900, 0.075
800.000, 0.078
800.100, 0.086
800.200, 0.071
800.300, 0.076
800.400, 0.080
800.500, 0.081
800.600, 0.084
800.700, 0.082
800.800, 0.084
800.900, 0.080
801.000, 0.077
801.100, 0.083
801.200, 0.082
801.300, 0.084
801.400, 0.087
801.500, 0.083
801.600, 0.086
801.700, 0.078
801.800, 0.088
801.900, 0.077
802.000, 0.084
802.100, 0.081
802.200, 0.075
802.300, 0.080
802.400, 0.085
802.500, 0.087
802.600, 0.086
802.700, 0.086
802.800, 0.095
802.900, 0.080
803.000, 0.082
803.100, 0.084
803.200, 0.083
803.300, 0.095
803.400, 0.085
803.500, 0.081
803.600, 0.079
803.700, 0.083
803.800, 0.082
803.900, 0.091
804.000, 0.088
804.100, 0.082
804.200, 0.081
804.300, 0.091
804.400, 0.083
804.500, 0.085
804.600, 0.084
804.700, 0.092
804.800, 0.084
804.900, 0.094
805.000, 0.091
805.100, 0.093
805.200, 0.089
805.300, 0.081
805.400, 0.083
805.500, 0.083
805.600, 0.093
805.700, 0.087
805.800, 0.091
805.900, 0.078
806.000, 0.077
806.100, 0.081
806.200, 0.075
806.300, 0.083
806.400, 0.084
806.500, 0.082
806.600, 0.096
806.700, 0.081
806.800, 0.090
806.900, 0.090
807.000, 0.084
807.100, 0.073
807.200, 0.086
807.300, 0.079
807.400, 0.069
807.500, 0.075
807.600, 0.075
807.700, 0.077
807.800, 0.086
807.900, 0.079
808.000, 0.078
808.100, 0.081
808.200, 0.082
808.300, 0.074
808.400, 0.087
808.500, 0.083
808.600, 0.080
808.700, 0.084
808.800, 0.089
808.900, 0.081
809.000, 0.084
809.100, 0.082
809.200, 0.087
809.300, 0.085
809.400, 0.076
809.500, 0.084
809.600, 0.077
809.700, 0.072
809.800, 0.086
809.900, 0.078
810.000, 0.073
810.100, 0.078
810.200, 0.070
810.300, 0.078
810.400, 0.070
810.500, 0.068
810.600, 0.071
810.700, 0.067
810.800, 0.066
810.900, 0.070
811.000, 0.068
811.100, 0.074
811.200, 0.072
811.300, 0.074
811.400, 0.074
811.500, 0.074
811.600, 0.073
811.700, 0.076
811.800, 0.069
811.900, 0.073
812.000, 0.066
812.100, 0.073
812.200, 0.076
812.300, 0.068
812.400, 0.078
812.500, 0.071
812.600, 0.071
812.700, 0.073
812.800, 0.067
812.900, 0.065
813.000, 0.072
813.100, 0.076
813.200, 0.073
813.300, 0.079
813.400, 0.074
813.500, 0.069
813.600, 0.066
813.700, 0.064
813.800, 0.066
813.900, 0.064
814.000, 0.070
814.100, 0.070
814.200, 0.065
814.300, 0.067
814.400, 0.072
814.500, 0.062
814.600, 0.062
814.700, 0.068
814.800, 0.068
814.900, 0.060
815.000, 0.068
815.100, 0.070
815.200, 0.064
815.300, 0.062
815.400, 0.068
815.500, 0.066
815.600, 0.069
815.700, 0.071
815.800, 0.067
815.900, 0.069
816.000, 0.070
816.100, 0.064
816.200, 0.070
816.300, 0.071
816.400, 0.074
816.500, 0.070
816.600, 0.062
816.700, 0.071
816.800, 0.062
816.900, 0.067
817.000, 0.068
817.100, 0.071
817.200, 0.067
817.300, 0.071
817.400, 0.074
817.500, 0.078
817.600, 0.075
817.700, 0.068
817.800, 0.067
817.900, 0.067
818.000, 0.071
818.100, 0.070
818.200, 0.074
818.300, 0.074
818.400, 0.075
818.500, 0.071
818.600, 0.076
818.700, 0.076
818.800, 0.079
818.900, 0.076
819.000, 0.074
819.100, 0.064
819.200, 0.073
819.300, 0.076
819.400, 0.067
819.500, 0.074
819.600, 0.072
819.700, 0.071
819.800, 0.069
819.900, 0.072
820.000, 0.073
820.100, 0.069
820.200, 0.074
820.300, 0.071
820.400, 0.072
820.500, 0.075
820.600, 0.070
820.700, 0.077
820.800, 0.088
820.900, 0.073
821.000, 0.070
821.100, 0.073
821.200, 0.072
821.300, 0.077
821.400, 0.070
821.500, 0.068
821.600, 0.077
821.700, 0.071
821.800, 0.063
821.900, 0.069
822.000, 0.070
822.100, 0.071
822.200, 0.069
822.300, 0.067
822.400, 0.074
822.500, 0.078
822.600, 0.079
822.700, 0.073
822.800, 0.081
822.900, 0.086
823.000, 0.088
823.100, 0.079
823.200, 0.072
823.300, 0.077
823.400, 0.078
823.500, 0.077
823.600, 0.070
823.700, 0.073
823.800, 0.074
823.900, 0.074
824.000, 0.069
824.100, 0.067
824.200, 0.067
824.300, 0.067
824.400, 0.071
824.500, 0.075
824.600, 0.067
824.700, 0.076
824.800, 0.067
824.900, 0.074
825.000, 0.070
825.100, 0.069
825.200, 0.071
825.300, 0.069
825.400, 0.083
825.500, 0.088
825.600, 0.082
825.700, 0.075
825.800, 0.070
825.900, 0.069
826.000, 0.074
826.100, 0.077
826.200, 0.074
826.300, 0.074
826.400, 0.075
826.500, 0.080
826.600, 0.074
826.700, 0.075
826.800, 0.076
826.900, 0.078
827.000, 0.072
827.100, 0.072
827.200, 0.078
827.300, 0.074
827.400, 0.071
827.500, 0.084
827.600, 0.075
827.700, 0.078
827.800, 0.069
827.900, 0.082
828.000, 0.071
828.100, 0.072
828.200, 0.081
828.300, 0.081
828.400, 0.073
828.500, 0.076
828.600, 0.075
828.700, 0.076
828.800, 0.080
828.900, 0.070
829.000, 0.087
829.100, 0.071
829.200, 0.080
829.300, 0.075
829.400, 0.078
829.500, 0.074
829.600, 0.077
829.700, 0.084
829.800, 0.088
829.900, 0.082
830.000, 0.080
830.100, 0.080
830.200, 0.076
830.300, 0.084
830.400, 0.082
830.500, 0.077
830.600, 0.068
830.700, 0.080
830.800, 0.078
830.900, 0.069
831.000, 0.076
831.100, 0.077
831.200, 0.075
831.300, 0.074
831.400, 0.075
831.500, 0.077
831.600, 0.074
831.700, 0.075
831.800, 0.071
831.900, 0.068
832.000, 0.076
832.100, 0.079
832.200, 0.081
832.300, 0.075
832.400, 0.072
832.500, 0.071
832.600, 0.073
832.700, 0.074
832.800, 0.084
832.900, 0.075
833.000, 0.073
833.100, 0.077
833.200, 0.079
833.300, 0.078
833.400, 0.090
833.500, 0.076
833.600, 0.077
833.700, 0.082
833.800, 0.091
833.900, 0.071
834.000, 0.081
834.100, 0.083
834.200, 0.083
834.300, 0.089
834.400, 0.085
834.500, 0.082
834.600, 0.081
834.700, 0.080
834.800, 0.078
834.900, 0.082
835.000, 0.083
835.100, 0.076
835.200, 0.090
835.300, 0.087
835.400, 0.093
835.500, 0.100
835.600, 0.088
835.700, 0.084
835.800, 0.083
835.900, 0.089
836.000, 0.086
836.100, 0.088
836.200, 0.089
836.300, 0.099
836.400, 0.101
836.500, 0.088
836.600, 0.095
836.700, 0.084
836.800, 0.084
836.900, 0.084
837.000, 0.082
837.100, 0.082
837.200, 0.089
837.300, 0.089
837.400, 0.088
837.500, 0.096
837.600, 0.099
837.700, 0.096
837.800, 0.098
837.900, 0.094
838.000, 0.101
838.100, 0.086
838.200, 0.090
838.300, 0.100
838.400, 0.079
838.500, 0.102
838.600, 0.092
838.700, 0.091
838.800, 0.088
838.900, 0.086
839.000, 0.081
839.100, 0.083
839.200, 0.084
839.300, 0.086
839.400, 0.084
839.500, 0.091
839.600, 0.090
839.700, 0.089
839.800, 0.086
839.900, 0.086
840.000, 0.103
840.100, 0.089
840.200, 0.087
840.300, 0.078
840.400, 0.084
840.500, 0.084
840.600, 0.091
840.700, 0.091
840.800, 0.092
840.900, 0.083
841.000, 0.086
841.100, 0.098
841.200, 0.090
841.300, 0.085
841.400, 0.082
841.500, 0.080
841.600, 0.085
841.700, 0.088
841.800, 0.104
841.900, 0.082
842.000, 0.085
842.100, 0.088
842.200, 0.110
842.300, 0.093
842.400, 0.096
842.500, 0.084
842.600, 0.084
842.700, 0.088
842.800, 0.095
842.900, 0.092
843.000, 0.082
843.100, 0.087
843.200, 0.094
843.300, 0.096
843.400, 0.086
843.500, 0.090
843.600, 0.083
843.700, 0.101
843.800, 0.090
843.900, 0.082
844.000, 0.084
844.100, 0.080
844.200, 0.079
844.300, 0.076
844.400, 0.081
844.500, 0.075
844.600, 0.086
844.700, 0.087
844.800, 0.072
844.900, 0.078
845.000, 0.073
845.100, 0.081
845.200, 0.076
845.300, 0.077
845.400, 0.076
845.500, 0.075
845.600, 0.075
845.700, 0.080
845.800, 0.076
845.900, 0.081
846.000, 0.079
846.100, 0.077
846.200, 0.077
846.300, 0.079
846.400, 0.083
846.500, 0.079
846.600, 0.080
846.700, 0.082
846.800, 0.086
846.900, 0.088
847.000, 0.091
847.100, 0.074
847.200, 0.087
847.300, 0.083
847.400, 0.085
847.500, 0.090
847.600, 0.086
847.700, 0.076
847.800, 0.084
847.900, 0.092
848.000, 0.088
848.100, 0.084
848.200, 0.086
848.300, 0.078
848.400, 0.080
848.500, 0.088
848.600, 0.086
848.700, 0.081
848.800, 0.082
848.900, 0.068
849.000, 0.080
849.100, 0.082
849.200, 0.081
849.300, 0.075
849.400, 0.087
849.500, 0.071
849.600, 0.067
849.700, 0.077
849.800, 0.070
849.900, 0.079
850.000, 0.075
850.100, 0.079
850.200, 0.073
850.300, 0.070
850.400, 0.075
850.500, 0.075
850.600, 0.082
850.700, 0.092
850.800, 0.077
850.900, 0.072
851.000, 0.086
851.100, 0.074
851.200, 0.079
851.300, 0.085
851.400, 0.075
851.500, 0.077
851.600, 0.077
851.700, 0.072
851.800, 0.089
851.900, 0.081
852.000, 0.079
852.100, 0.081
852.200, 0.078
852.300, 0.086
852.400, 0.081
852.500, 0.075
852.600, 0.082
852.700, 0.077
852.800, 0.083
852.900, 0.079
853.000, 0.090
853.100, 0.089
853.200, 0.096
853.300, 0.092
853.400, 0.072
853.500, 0.073
853.600, 0.079
853.700, 0.079
853.800, 0.080
853.900, 0.084
854.000, 0.080
854.100, 0.088
854.200, 0.080
854.300, 0.079
854.400, 0.074
854.500, 0.079
854.600, 0.085
854.700, 0.086
854.800, 0.086
854.900, 0.091
855.000, 0.078
855.100, 0.087
855.200, 0.081
855.300, 0.072
855.400, 0.084
855.500, 0.076
855.600, 0.088
855.700, 0.070
855.800, 0.086
855.900, 0.076
856.000, 0.072
856.100, 0.078
856.200, 0.089
856.300, 0.079
856.400, 0.083
856.500, 0.079
856.600, 0.070
856.700, 0.072
856.800, 0.082
856.900, 0.071
857.000, 0.080
857.100, 0.076
857.200, 0.080
857.300, 0.079
857.400, 0.074
857.500, 0.075
857.600, 0.080
857.700, 0.075
857.800, 0.079
857.900, 0.076
858.000, 0.076
858.100, 0.070
858.200, 0.080
858.300, 0.073
858.400, 0.069
858.500, 0.080
858.600, 0.086
858.700, 0.072
858.800, 0.072
858.900, 0.072
859.000, 0.075
859.100, 0.069
859.200, 0.074
859.300, 0.068
859.400, 0.078
859.500, 0.070
859.600, 0.077
859.700, 0.082
859.800, 0.079
859.900, 0.074
860.000, 0.075
860.100, 0.075
860.200, 0.082
860.300, 0.075
860.400, 0.083
860.500, 0.084
860.600, 0.079
860.700, 0.082
860.800, 0.082
860.900, 0.078
861.000, 0.086
861.100, 0.080
861.200, 0.083
861.300, 0.077
861.400, 0.074
861.500, 0.081
861.600, 0.082
861.700, 0.072
861.800, 0.078
861.900, 0.074
862.000, 0.086
862.100, 0.068
862.200, 0.077
862.300, 0.075
862.400, 0.072
862.500, 0.079
862.600, 0.073
862.700, 0.074
862.800, 0.077
862.900, 0.086
863.000, 0.081
863.100, 0.083
863.200, 0.075
863.300, 0.076
863.400, 0.079
863.500, 0.078
863.600, 0.069
863.700, 0.075
863.800, 0.077
863.900, 0.086
864.000, 0.081
864.100, 0.086
864.200, 0.081
864.300, 0.084
864.400, 0.090
864.500, 0.087
864.600, 0.089
864.700, 0.085
864.800, 0.082
864.900, 0.084
865.000, 0.077
865.100, 0.083
865.200, 0.081
865.300, 0.088
865.400, 0.099
865.500, 0.073
865.600, 0.075
865.700, 0.075
865.800, 0.077
865.900, 0.074
866.000, 0.076
866.100, 0.071
866.200, 0.067
866.300, 0.075
866.400, 0.080
866.500, 0.070
866.600, 0.073
866.700, 0.079
866.800, 0.072
866.900, 0.076
867.000, 0.070
867.100, 0.073
867.200, 0.072
867.300, 0.067
867.400, 0.073
867.500, 0.081
867.600, 0.077
867.700, 0.078
867.800, 0.088
867.900, 0.090
868.000, 0.080
868.100, 0.071
868.200, 0.072
868.300, 0.070
868.400, 0.077
868.500, 0.072
868.600, 0.071
868.700, 0.073
868.800, 0.077
868.900, 0.067
869.000, 0.069
869.100, 0.073
869.200, 0.074
869.300, 0.077
869.400, 0.070
869.500, 0.083
869.600, 0.083
869.700, 0.071
869.800, 0.080
869.900, 0.081
870.000, 0.079
870.100, 0.078
870.200, 0.077
870.300, 0.076
870.400, 0.076
870.500, 0.078
870.600, 0.073
870.700, 0.075
870.800, 0.077
870.900, 0.080
871.000, 0.088
871.100, 0.071
871.200, 0.077
871.300, 0.077
871.400, 0.077
871.500, 0.073
871.600, 0.083
871.700, 0.082
871.800, 0.080
871.900, 0.084
872.000, 0.091
872.100, 0.084
872.200, 0.095
872.300, 0.091
872.400, 0.099
872.500, 0.093
872.600, 0.083
872.700, 0.080
872.800, 0.089
872.900, 0.082
873.000, 0.080
873.100, 0.077
873.200, 0.086
873.300, 0.088
873.400, 0.087
873.500, 0.081
873.600, 0.087
873.700, 0.080
873.800, 0.091
873.900, 0.090
874.000, 0.090
874.100, 0.080
874.200, 0.089
874.300, 0.085
874.400, 0.078
874.500, 0.084
874.600, 0.084
874.700, 0.080
874.800, 0.087
874.900, 0.081
875.000, 0.080
875.100, 0.090
875.200, 0.078
875.300, 0.095
875.400, 0.088
875.500, 0.092
875.600, 0.087
875.700, 0.086
875.800, 0.090
875.900, 0.094
876.000, 0.098
876.100, 0.097
876.200, 0.096
876.300, 0.091
876.400, 0.095
876.500, 0.096
876.600, 0.096
876.700, 0.101
876.800, 0.095
876.900, 0.104
877.000, 0.107
877.100, 0.101
877.200, 0.112
877.300, 0.097
877.400, 0.105
877.500, 0.098
877.600, 0.098
877.700, 0.106
877.800, 0.097
877.900, 0.103
878.000, 0.105
878.100, 0.097
878.200, 0.095
878.300, 0.097
878.400, 0.098
878.500, 0.095
878.600, 0.106
878.700, 0.103
878.800, 0.098
878.900, 0.094
879.000, 0.100
879.100, 0.101
879.200, 0.098
879.300, 0.099
879.400, 0.114
879.500, 0.099
879.600, 0.101
879.700, 0.109
879.800, 0.104
879.900, 0.095
880.000, 0.092
880.100, 0.093
880.200, 0.096
880.300, 0.096
880.400, 0.092
880.500, 0.099
880.600, 0.102
880.700, 0.094
880.800, 0.100
880.900, 0.095
881.000, 0.100
881.100, 0.099
881.200, 0.114
881.300, 0.099
881.400, 0.107
881.500, 0.101
881.600, 0.093
881.700, 0.095
881.800, 0.105
881.900, 0.107
882.000, 0.098
882.100, 0.101
882.200, 0.100
882.300, 0.096
882.400, 0.100
882.500, 0.096
882.600, 0.097
882.700, 0.091
882.800, 0.096
882.900, 0.097
883.000, 0.093
883.100, 0.087
883.200, 0.092
883.300, 0.087
883.400, 0.093
883.500, 0.095
883.600, 0.099
883.700, 0.093
883.800, 0.098
883.900, 0.103
884.000, 0.092
884.100, 0.097
884.200, 0.098
884.300, 0.107
884.400, 0.099
884.500, 0.104
884.600, 0.094
884.700, 0.094
884.800, 0.085
884.900, 0.087
885.000, 0.101
885.100, 0.099
885.200, 0.102
885.300, 0.099
885.400, 0.091
885.500, 0.093
885.600, 0.090
885.700, 0.086
885.800, 0.095
885.900, 0.094
886.000, 0.098
886.100, 0.091
886.200, 0.089
886.300, 0.097
886.400, 0.083
886.500, 0.088
886.600, 0.088
886.700, 0.092
886.800, 0.096
886.900, 0.092
887.000, 0.088
887.100, 0.094
887.200, 0.101
887.300, 0.093
887.400, 0.091
887.500, 0.086
887.600, 0.082
887.700, 0.094
887.800, 0.082
887.900, 0.091
888.000, 0.100
888.100, 0.082
888.200, 0.090
888.300, 0.090
888.400, 0.077
888.500, 0.081
888.600, 0.090
888.700, 0.093
888.800, 0.090
888.900, 0.082
889.000, 0.090
889.100, 0.096
889.200, 0.086
889.300, 0.088
889.400, 0.085
889.500, 0.087
889.600, 0.083
889.700, 0.083
889.800, 0.086
889.900, 0.081
890.000, 0.088
890.100, 0.081
890.200, 0.083
890.300, 0.081
890.400, 0.090
890.500, 0.094
890.600, 0.094
890.700, 0.093
890.800, 0.090
890.900, 0.088
891.000, 0.084
891.100, 0.085
891.200, 0.088
891.300, 0.088
891.400, 0.082
891.500, 0.086
891.600, 0.084
891.700, 0.087
891.800, 0.081
891.900, 0.082
892.000, 0.081
892.100, 0.082
892.200, 0.081
892.300, 0.073
892.400, 0.079
892.500, 0.077
892.600, 0.075
892.700, 0.088
892.800, 0.084
892.900, 0.081
893.000, 0.085
893.100, 0.074
893.200, 0.079
893.300, 0.082
893.400, 0.090
893.500, 0.080
893.600, 0.083
893.700, 0.076
893.800, 0.079
893.900, 0.079
894.000, 0.079
894.100, 0.076
894.200, 0.083
894.300, 0.081
894.400, 0.087
894.500, 0.082
894.600, 0.080
894.700, 0.085
894.800, 0.088
894.900, 0.088
895.000, 0.094
895.100, 0.087
895.200, 0.085
895.300, 0.092
895.400, 0.086
895.500, 0.090
895.600, 0.082
895.700, 0.087
895.800, 0.089
895.900, 0.086
896.000, 0.075
896.100, 0.090
896.200, 0.083
896.300, 0.086
896.400, 0.079
896.500, 0.081
896.600, 0.080
896.700, 0.082
896.800, 0.083
896.900, 0.081
897.000, 0.078
897.100, 0.084
897.200, 0.084
897.300, 0.093
897.400, 0.092
897.500, 0.090
897.600, 0.092
897.700, 0.086
897.800, 0.084
897.900, 0.083
898.000, 0.084
898.100, 0.088
898.200, 0.089
898.300, 0.091
898.400, 0.088
898.500, 0.085
898.600, 0.083
898.700, 0.088
898.800, 0.087
898.900, 0.081
899.000, 0.081
899.100, 0.083
899.200, 0.087
899.300, 0.089
899.400, 0.075
899.500, 0.080
899.600, 0.083
899.700, 0.083
899.800, 0.080
899.900, 0.094
900.000, 0.081
900.100, 0.082
900.200, 0.090
900.300, 0.095
900.400, 0.080
900.500, 0.080
900.600, 0.085
900.700, 0.076
900.800, 0.086
900.900, 0.085
901.000, 0.085
901.100, 0.078
901.200, 0.084
901.300, 0.090
901.400, 0.092
901.500, 0.081
901.600, 0.081
901.700, 0.083
901.800, 0.077
901.900, 0.087
902.000, 0.084
902.100, 0.088
902.200, 0.092
902.300, 0.090
902.400, 0.087
902.500, 0.088
902.600, 0.091
902.700, 0.093
902.800, 0.098
902.900, 0.093
903.000, 0.088
903.100, 0.097
903.200, 0.078
903.300, 0.085
903.400, 0.081
903.500, 0.080
903.600, 0.085
903.700, 0.090
903.800, 0.091
903.900, 0.089
904.000, 0.086
904.100, 0.088
904.200, 0.083
904.300, 0.083
904.400, 0.088
904.500, 0.095
904.600, 0.087
904.700, 0.083
904.800, 0.079
904.900, 0.076
905.000, 0.082
905.100, 0.081
905.200, 0.086
905.300, 0.077
905.400, 0.083
905.500, 0.081
905.600, 0.082
905.700, 0.072
905.800, 0.070
905.900, 0.073
906.000, 0.080
906.100, 0.081
906.200, 0.080
906.300, 0.079
906.400, 0.081
906.500, 0.079
906.600, 0.077
906.700, 0.087
906.800, 0.080
906.900, 0.082
907.000, 0.076
907.100, 0.081
907.200, 0.088
907.300, 0.084
907.400, 0.086
907.500, 0.094
907.600, 0.091
907.700, 0.098
907.800, 0.082
907.900, 0.080
908.000, 0.086
908.100, 0.083
908.200, 0.090
908.300, 0.086
908.400, 0.089
908.500, 0.077
908.600, 0.086
908.700, 0.086
908.800, 0.081
908.900, 0.082
909.000, 0.086
909.100, 0.089
909.200, 0.084
909.300, 0.082
909.400, 0.084
909.500, 0.088
909.600, 0.085
909.700, 0.095
909.800, 0.080
909.900, 0.078
910.000, 0.071
910.100, 0.074
910.200, 0.086
910.300, 0.082
910.400, 0.077
910.500, 0.076
910.600, 0.080
910.700, 0.084
910.800, 0.079
910.900, 0.086
911.000, 0.088
911.100, 0.077
911.200, 0.074
911.300, 0.080
911.400, 0.074
911.500, 0.077
911.600, 0.089
911.700, 0.078
911.800, 0.078
911.900, 0.078
912.000, 0.075
912.100, 0.079
912.200, 0.084
912.300, 0.082
912.400, 0.074
912.500, 0.078
912.600, 0.073
912.700, 0.082
912.800, 0.075
912.900, 0.076
913.000, 0.081
913.100, 0.073
913.200, 0.077
913.300, 0.079
913.400, 0.079
913.500, 0.090
913.600, 0.077
913.700, 0.085
913.800, 0.085
913.900, 0.075
914.000, 0.076
914.100, 0.082
914.200, 0.089
914.300, 0.081
914.400, 0.082
914.500, 0.076
914.600, 0.071
914.700, 0.071
914.800, 0.079
914.900, 0.073
915.000, 0.076
915.100, 0.076
915.200, 0.083
915.300, 0.079
915.400, 0.077
915.500, 0.080
915.600, 0.082
915.700, 0.082
915.800, 0.074
915.900, 0.081
916.000, 0.078
916.100, 0.080
916.200, 0.084
916.300, 0.076
916.400, 0.086
916.500, 0.078
916.600, 0.080
916.700, 0.081
916.800, 0.074
916.900, 0.079
917.000, 0.080
917.100, 0.073
917.200, 0.080
917.300, 0.079
917.400, 0.078
917.500, 0.091
917.600, 0.083
917.700, 0.090
917.800, 0.086
917.900, 0.084
918.000, 0.082
918.100, 0.085
918.200, 0.080
918.300, 0.086
918.400, 0.085
918.500, 0.076
918.600, 0.080
918.700, 0.074
918.800, 0.081
918.900, 0.083
919.000, 0.073
919.100, 0.079
919.200, 0.075
919.300, 0.077
919.400, 0.080
919.500, 0.079
919.600, 0.079
919.700, 0.070
919.800, 0.076
919.900, 0.075
920.000, 0.073
920.100, 0.072
920.200, 0.070
920.300, 0.076
920.400, 0.087
920.500, 0.077
920.600, 0.068
920.700, 0.072
920.800, 0.079
920.900, 0.069
921.000, 0.078
921.100, 0.076
921.200, 0.082
921.300, 0.085
921.400, 0.077
921.500, 0.083
921.600, 0.079
921.700, 0.084
921.800, 0.081
921.900, 0.082
922.000, 0.083
922.100, 0.085
922.200, 0.084
922.300, 0.084
922.400, 0.074
922.500, 0.077
922.600, 0.077
922.700, 0.080
922.800, 0.090
922.900, 0.083
923.000, 0.077
923.100, 0.077
923.200, 0.082
923.300, 0.077
923.400, 0.083
923.500, 0.078
923.600, 0.075
923.700, 0.071
923.800, 0.080
923.900, 0.089
924.000, 0.085
924.100, 0.091
924.200, 0.074
924.300, 0.077
924.400, 0.079
924.500, 0.077
924.600, 0.076
924.700, 0.080
924.800, 0.083
924.900, 0.082
925.000, 0.083
925.100, 0.079
925.200, 0.080
925.300, 0.080
925.400, 0.081
925.500, 0.075
925.600, 0.077
925.700, 0.077
925.800, 0.085
925.900, 0.076
926.000, 0.086
926.100, 0.074
926.200, 0.081
926.300, 0.081
926.400, 0.082
926.500, 0.082
926.600, 0.083
926.700, 0.079
926.800, 0.081
926.900, 0.082
927.000, 0.081
927.100, 0.071
927.200, 0.072
927.300, 0.079
927.400, 0.079
927.500, 0.078
927.600, 0.074
927.700, 0.068
927.800, 0.071
927.900, 0.071
928.000, 0.082
928.100, 0.082
928.200, 0.078
928.300, 0.083
928.400, 0.079
928.500, 0.077
928.600, 0.087
928.700, 0.080
928.800, 0.089
928.900, 0.090
929.000, 0.082
929.100, 0.084
929.200, 0.084
929.300, 0.085
929.400, 0.082
929.500, 0.080
929.600, 0.078
929.700, 0.083
929.800, 0.080
929.900, 0.078
930.000, 0.082
930.100, 0.080
930.200, 0.084
930.300, 0.074
930.400, 0.073
930.500, 0.077
930.600, 0.076
930.700, 0.087
930.800, 0.083
930.900, 0.084
931.000, 0.083
931.100, 0.080
931.200, 0.087
931.300, 0.077
931.400, 0.072
931.500, 0.069
931.600, 0.074
931.700, 0.070
931.800, 0.069
931.900, 0.070
932.000, 0.069
932.100, 0.081
932.200, 0.078
932.300, 0.073
932.400, 0.084
932.500, 0.083
932.600, 0.080
932.700, 0.094
932.800, 0.088
932.900, 0.079
933.000, 0.086
933.100, 0.084
933.200, 0.088
933.300, 0.084
933.400, 0.086
933.500, 0.087
933.600, 0.092
933.700, 0.086
933.800, 0.082
933.900, 0.080
934.000, 0.080
934.100, 0.084
934.200, 0.089
934.300, 0.081
934.400, 0.090
934.500, 0.079
934.600, 0.088
934.700, 0.076
934.800, 0.081
934.900, 0.082
935.000, 0.081
935.100, 0.072
935.200, 0.078
935.300, 0.091
935.400, 0.080
935.500, 0.096
935.600, 0.089
935.700, 0.085
935.800, 0.082
935.900, 0.076
936.000, 0.086
936.100, 0.088
936.200, 0.089
936.300, 0.086
936.400, 0.083
936.500, 0.084
936.600, 0.075
936.700, 0.080
936.800, 0.081
936.900, 0.084
937.000, 0.089
937.100, 0.079
937.200, 0.086
937.300, 0.090
937.400, 0.081
937.500, 0.082
937.600, 0.071
937.700, 0.076
937.800, 0.083
937.900, 0.086
938.000, 0.079
938.100, 0.092
938.200, 0.090
938.300, 0.082
938.400, 0.083
938.500, 0.080
938.600, 0.082
938.700, 0.088
938.800, 0.085
938.900, 0.083
939.000, 0.082
939.100, 0.095
939.200, 0.090
939.300, 0.082
939.400, 0.096
939.500, 0.084
939.600, 0.078
939.700, 0.073
939.800, 0.075
939.900, 0.076
940.000, 0.082
940.100, 0.085
940.200, 0.086
940.300, 0.087
940.400, 0.096
940.500, 0.082
940.600, 0.073
940.700, 0.081
940.800, 0.077
940.900, 0.081
941.000, 0.077
941.100, 0.081
941.200, 0.081
941.300, 0.081
941.400, 0.077
941.500, 0.082
941.600, 0.090
941.700, 0.084
941.800, 0.076
941.900, 0.084
942.000, 0.088
942.100, 0.084
942.200, 0.091
942.300, 0.093
942.400, 0.087
942.500, 0.073
942.600, 0.080
942.700, 0.079
942.800, 0.082
942.900, 0.078
943.000, 0.086
943.100, 0.088
943.200, 0.090
943.300, 0.086
943.400, 0.078
943.500, 0.078
943.600, 0.081
943.700, 0.073
943.800, 0.084
943.900, 0.082
944.000, 0.079
944.100, 0.085
944.200, 0.083
944.300, 0.082
944.400, 0.082
944.500, 0.095
944.600, 0.087
944.700, 0.088
944.800, 0.081
944.900, 0.071
945.000, 0.078
945.100, 0.087
945.200, 0.079
945.300, 0.070
945.400, 0.075
945.500, 0.077
945.600, 0.069
945.700, 0.079
945.800, 0.074
945.900, 0.075
946.000, 0.076
946.100, 0.089
946.200, 0.080
946.300, 0.077
946.400, 0.086
946.500, 0.090
946.600, 0.086
946.700, 0.091
946.800, 0.086
946.900, 0.081
947.000, 0.089
947.100, 0.088
947.200, 0.083
947.300, 0.086
947.400, 0.080
947.500, 0.083
947.600, 0.084
947.700, 0.081
947.800, 0.083
947.900, 0.084
948.000, 0.079
948.100, 0.080
948.200, 0.088
948.300, 0.086
948.400, 0.078
948.500, 0.082
948.600, 0.081
948.700, 0.079
948.800, 0.075
948.900, 0.091
949.000, 0.078
949.100, 0.086
949.200, 0.088
949.300, 0.088
949.400, 0.095
949.500, 0.091
949.600, 0.083
949.700, 0.091
949.800, 0.075
949.900, 0.076
950.000, 0.080
950.100, 0.073
950.200, 0.076
950.300, 0.077
950.400, 0.085
950.500, 0.079
950.600, 0.080
950.700, 0.084
950.800, 0.083
950.900, 0.081
951.000, 0.087
951.100, 0.083
951.200, 0.079
951.300, 0.086
951.400, 0.082
951.500, 0.084
951.600, 0.092
951.700, 0.092
951.800, 0.082
951.900, 0.100
952.000, 0.088
952.100, 0.089
952.200, 0.071
952.300, 0.074
952.400, 0.078
952.500, 0.068
952.600, 0.080
952.700, 0.088
952.800, 0.080
952.900, 0.081
953.000, 0.088
953.100, 0.079
953.200, 0.074
953.300, 0.083
953.400, 0.083
953.500, 0.073
953.600, 0.077
953.700, 0.077
953.800, 0.076
953.900, 0.080
954.000, 0.080
954.100, 0.073
954.200, 0.074
954.300, 0.080
954.400, 0.084
954.500, 0.077
954.600, 0.076
954.700, 0.085
954.800, 0.089
954.900, 0.085
955.000, 0.085
955.100, 0.079
955.200, 0.078
955.300, 0.092
955.400, 0.095
955.500, 0.082
955.600, 0.086
955.700, 0.087
955.800, 0.082
955.900, 0.085
956.000, 0.080
956.100, 0.075
956.200, 0.080
956.300, 0.084
956.400, 0.076
956.500, 0.077
956.600, 0.076
956.700, 0.076
956.800, 0.081
956.900, 0.084
957.000, 0.086
957.100, 0.088
957.200, 0.072
957.300, 0.083
957.400, 0.085
957.500, 0.077
957.600, 0.084
957.700, 0.086
957.800, 0.065
957.900, 0.081
958.000, 0.083
958.100, 0.077
958.200, 0.079
958.300, 0.065
958.400, 0.068
958.500, 0.077
958.600, 0.082
958.700, 0.079
958.800, 0.081
958.900, 0.082
959.000, 0.080
959.100, 0.085
959.200, 0.081
959.300, 0.084
959.400, 0.082
959.500, 0.084
959.600, 0.074
959.700, 0.078
959.800, 0.081
959.900, 0.079
960.000, 0.084
960.100, 0.073
960.200, 0.073
960.300, 0.083
960.400, 0.082
960.500, 0.089
960.600, 0.079
960.700, 0.078
960.800, 0.075
960.900, 0.081
961.000, 0.087
961.100, 0.081
961.200, 0.075
961.300, 0.073
961.400, 0.075
961.500, 0.070
961.600, 0.063
961.700, 0.081
961.800, 0.072
961.900, 0.078
962.000, 0.072
962.100, 0.081
962.200, 0.084
962.300, 0.082
962.400, 0.085
962.500, 0.078
962.600, 0.083
962.700, 0.078
962.800, 0.077
962.900, 0.073
963.000, 0.083
963.100, 0.079
963.200, 0.081
963.300, 0.084
963.400, 0.083
963.500, 0.089
963.600, 0.081
963.700, 0.083
963.800, 0.078
963.900, 0.077
964.000, 0.076
964.100, 0.079
964.200, 0.078
964.300, 0.070
964.400, 0.080
964.500, 0.073
964.600, 0.075
964.700, 0.079
964.800, 0.080
964.900, 0.070
965.000, 0.072
965.100, 0.080
965.200, 0.072
965.300, 0.077
965.400, 0.082
965.500, 0.088
965.600, 0.085
965.700, 0.087
965.800, 0.077
965.900, 0.085
966.000, 0.083
966.100, 0.079
966.200, 0.074
966.300, 0.078
966.400, 0.070
966.500, 0.075
966.600, 0.079
966.700, 0.070
966.800, 0.084
966.900, 0.075
967.000, 0.082
967.100, 0.074
967.200, 0.075
967.300, 0.078
967.400, 0.074
967.500, 0.073
967.600, 0.082
967.700, 0.075
967.800, 0.080
967.900, 0.079
968.000, 0.073
968.100, 0.083
968.200, 0.071
968.300, 0.079
968.400, 0.078
968.500, 0.071
968.600, 0.077
968.700, 0.084
968.800, 0.077
968.900, 0.071
969.000, 0.069
969.100, 0.067
969.200, 0.064
969.300, 0.064
969.400, 0.071
969.500, 0.070
969.600, 0.070
969.700, 0.065
969.800, 0.073
969.900, 0.064
970.000, 0.069
970.100, 0.072
970.200, 0.069
970.300, 0.073
970.400, 0.076
970.500, 0.077
970.600, 0.065
970.700, 0.063
970.800, 0.065
970.900, 0.076
971.000, 0.083
971.100, 0.078
971.200, 0.079
971.300, 0.073
971.400, 0.070
971.500, 0.071
971.600, 0.072
971.700, 0.069
971.800, 0.075
971.900, 0.079
972.000, 0.094
972.100, 0.078
972.200, 0.079
972.300, 0.080
972.400, 0.079
972.500, 0.072
972.600, 0.074
972.700, 0.071
972.800, 0.070
972.900, 0.073
973.000, 0.068
973.100, 0.080
973.200, 0.077
973.300, 0.072
973.400, 0.066
973.500, 0.068
973.600, 0.075
973.700, 0.075
973.800, 0.075
973.900, 0.072
974.000, 0.074
974.100, 0.079
974.200, 0.078
974.300, 0.084
974.400, 0.076
974.500, 0.074
974.600, 0.070
974.700, 0.066
974.800, 0.073
974.900, 0.081
975.000, 0.090
975.100, 0.082
975.200, 0.069
975.300, 0.068
975.400, 0.069
975.500, 0.073
975.600, 0.078
975.700, 0.076
975.800, 0.081
975.900, 0.068
976.000, 0.072
976.100, 0.068
976.200, 0.069
976.300, 0.076
976.400, 0.075
976.500, 0.070
976.600, 0.064
976.700, 0.069
976.800, 0.069
976.900, 0.065
977.000, 0.067
977.100, 0.076
977.200, 0.073
977.300, 0.073
977.400, 0.068
977.500, 0.073
977.600, 0.072
977.700, 0.073
977.800, 0.075
977.900, 0.071
978.000, 0.070
978.100, 0.077
978.200, 0.068
978.300, 0.070
978.400, 0.071
978.500, 0.068
978.600, 0.064
978.700, 0.067
978.800, 0.066
978.900, 0.062
979.000, 0.069
979.100, 0.071
979.200, 0.068
979.300, 0.070
979.400, 0.074
979.500, 0.081
979.600, 0.080
979.700, 0.074
979.800, 0.067
979.900, 0.070
980.000, 0.072
980.100, 0.072
980.200, 0.072
980.300, 0.073
980.400, 0.078
980.500, 0.082
980.600, 0.074
980.700, 0.074
980.800, 0.068
980.900, 0.072
981.000, 0.079
981.100, 0.072
981.200, 0.070
981.300, 0.077
981.400, 0.073
981.500, 0.078
981.600, 0.068
981.700, 0.072
981.800, 0.068
981.900, 0.068
982.000, 0.070
982.100, 0.077
982.200, 0.078
982.300, 0.079
982.400, 0.070
982.500, 0.076
982.600, 0.064
982.700, 0.073
982.800, 0.070
982.900, 0.074
983.000, 0.068
983.100, 0.077
983.200, 0.071
983.300, 0.065
983.400, 0.070
983.500, 0.069
983.600, 0.067
983.700, 0.070
983.800, 0.070
983.900, 0.069
984.000, 0.071
984.100, 0.061
984.200, 0.072
984.300, 0.063
984.400, 0.070
984.500, 0.065
984.600, 0.069
984.700, 0.067
984.800, 0.068
984.900, 0.069
985.000, 0.067
985.100, 0.068
985.200, 0.072
985.300, 0.069
985.400, 0.063
985.500, 0.058
985.600, 0.071
985.700, 0.061
985.800, 0.064
985.900, 0.060
986.000, 0.073
986.100, 0.067
986.200, 0.071
986.300, 0.073
986.400, 0.075
986.500, 0.068
986.600, 0.070
986.700, 0.069
986.800, 0.068
986.900, 0.068
987.000, 0.066
987.100, 0.067
987.200, 0.065
987.300, 0.073
987.400, 0.059
987.500, 0.069
987.600, 0.070
987.700, 0.063
987.800, 0.064
987.900, 0.057
988.000, 0.066
988.100, 0.067
988.200, 0.062
988.300, 0.060
988.400, 0.063
988.500, 0.070
988.600, 0.062
988.700, 0.066
988.800, 0.069
988.900, 0.059
989.000, 0.057
989.100, 0.066
989.200, 0.064
989.300, 0.067
989.400, 0.067
989.500, 0.065
989.600, 0.072
989.700, 0.074
989.800, 0.069
989.900, 0.085
990.000, 0.074
990.100, 0.070
990.200, 0.073
990.300, 0.073
990.400, 0.067
990.500, 0.064
990.600, 0.065
990.700, 0.067
990.800, 0.077
990.900, 0.068
991.000, 0.077
991.100, 0.076
991.200, 0.071
991.300, 0.065
991.400, 0.067
991.500, 0.072
991.600, 0.068
991.700, 0.073
991.800, 0.070
991.900, 0.071
992.000, 0.072
992.100, 0.069
992.200, 0.077
992.300, 0.067
992.400, 0.067
992.500, 0.071
992.600, 0.072
992.700, 0.069
992.800, 0.070
992.900, 0.070
993.000, 0.067
993.100, 0.059
993.200, 0.067
993.300, 0.078
993.400, 0.071
993.500, 0.071
993.600, 0.070
993.700, 0.073
993.800, 0.069
993.900, 0.067
994.000, 0.073
994.100, 0.073
994.200, 0.077
994.300, 0.072
994.400, 0.073
994.500, 0.075
994.600, 0.066
994.700, 0.059
994.800, 0.065
994.900, 0.064
995.000, 0.065
995.100, 0.066
995.200, 0.069
995.300, 0.065
995.400, 0.069
995.500, 0.060
995.600, 0.065
995.700, 0.065
995.800, 0.068
995.900, 0.070
996.000, 0.068
996.100, 0.062
996.200, 0.055
996.300, 0.067
996.400, 0.063
996.500, 0.065
996.600, 0.070
996.700, 0.069
996.800, 0.064
996.900, 0.066
997.000, 0.064
997.100, 0.064
997.200, 0.068
997.300, 0.065
997.400, 0.061
997.500, 0.061
997.600, 0.062
997.700, 0.068
997.800, 0.060
997.900, 0.058
998.000, 0.062
998.100, 0.071
998.200, 0.060
998.300, 0.059
998.400, 0.062
998.500, 0.064
998.600, 0.059
998.700, 0.057
998.800, 0.068
998.900, 0.069
999.000, 0.061
999.100, 0.070
999.200, 0.073
999.300, 0.056
999.400, 0.050
999.500, 0.060
999.600, 0.059
999.700, 0.062
999.800, 0.059
999.900, 0.008
1000.000, 0.000
